Prel	transmission
0.764457	0.656576
0.76446	0.658702
0.764281	0.657397
0.764238	0.661205
0.764192	0.660447
0.764185	0.659902
0.764094	0.663632
0.764118	0.661647
0.764059	0.663046
0.76396	0.664383
0.763865	0.662948
0.76378	0.663565
0.763794	0.664912
0.763703	0.665138
0.763787	0.6643
0.76378	0.66373
0.763794	0.660574
0.763636	0.662959
0.763629	0.659075
0.763533	0.663538
0.763491	0.665361
0.763392	0.665755
0.763382	0.666119
0.763347	0.662963
0.763213	0.664798
0.763216	0.666025
0.763213	0.662286
0.763107	0.660112
0.763163	0.65678
0.763015	0.657698
0.763012	0.658282
0.76291	0.657457
0.762885	0.659508
0.76291	0.659124
0.762871	0.652893
0.762783	0.65589
0.762712	0.655644
0.762617	0.653647
0.762575	0.655312
0.762582	0.659032
0.762522	0.659401
0.762423	0.659687
0.762568	0.658121
0.762483	0.658127
0.76243	0.656288
0.762392	0.65884
0.762349	0.658467
0.76243	0.653705
0.762134	0.648647
0.762138	0.650281
0.76205	0.657401
0.762282	0.653843
0.762004	0.657075
0.762011	0.653609
0.762007	0.654087
0.762004	0.660671
0.761969	0.662474
0.761881	0.661448
0.761775	0.65794
0.761775	0.655761
0.761743	0.655148
0.761743	0.655803
0.76162	0.651705
0.76175	0.659841
0.761606	0.662926
0.76162	0.662447
0.761609	0.657338
0.761588	0.658159
0.761563	0.660246
0.761394	0.660342
0.761429	0.658485
0.761299	0.659479
0.761271	0.655676
0.76126	0.660087
0.7612	0.661654
0.761211	0.660398
0.761028	0.659424
0.761204	0.660682
0.76094	0.658968
0.760943	0.6591
0.760947	0.6604
0.760943	0.661048
0.760943	0.661685
0.76088	0.660914
0.760851	0.658288
0.760809	0.659815
0.76076	0.659696
0.760809	0.654737
0.760728	0.651331
0.760566	0.663419
0.760538	0.6628
0.760517	0.66356
0.760383	0.659721
0.760432	0.658554
0.760421	0.656436
0.760376	0.657712
0.760369	0.659115
0.760372	0.656639
0.760365	0.656429
0.760337	0.656614
0.760263	0.66006
0.760196	0.657801
0.760147	0.657864
0.760097	0.659314
0.760065	0.657783
0.760023	0.662027
0.759917	0.660355
0.759896	0.662273
0.759907	0.663699
0.759773	0.660722
0.759734	0.663916
0.759702	0.654371
0.759695	0.659993
0.759773	0.659024
0.759713	0.659978
0.75965	0.662981
0.759614	0.665665
0.759576	0.665082
0.759526	0.664581
0.759487	0.666226
0.759357	0.659991
0.759389	0.663366
0.759332	0.658259
0.759265	0.659696
0.759213	0.65952
0.759262	0.662624
0.759248	0.664331
0.759107	0.661761
0.759096	0.665223
0.759096	0.665187
0.759012	0.666115
0.75898	0.665232
0.758976	0.666121
0.758871	0.664094
0.75885	0.662336
0.75885	0.661636
0.758846	0.661629
0.758684	0.659596
0.758575	0.660333
0.758582	0.663267
0.758455	0.663938
0.758487	0.66567
0.758444	0.662653
0.758451	0.664289
0.758589	0.661873
0.75843	0.661417
0.758427	0.661093
0.758289	0.659339
0.758353	0.656706
0.758279	0.663969
0.758212	0.658498
0.758279	0.656163
0.758085	0.659003
0.758	0.659189
0.758152	0.658147
0.757965	0.65937
0.758018	0.660431
0.758032	0.65728
0.757933	0.659542
0.757722	0.663734
0.757873	0.661115
0.757782	0.663296
0.757651	0.660769
0.757644	0.661732
0.757591	0.663069
0.757588	0.66127
0.757591	0.6624
0.757464	0.655367
0.757436	0.660219
0.757443	0.656342
0.757486	0.659906
0.757454	0.661864
0.757348	0.659021
0.757278	0.662503
0.757197	0.662427
0.757183	0.660729
0.757151	0.659761
0.757094	0.6623
0.757017	0.662972
0.756848	0.663469
0.75683	0.663605
0.756777	0.663998
0.756805	0.66643
0.75677	0.661162
0.756767	0.651935
0.75677	0.654634
0.756742	0.656391
0.756728	0.656599
0.756654	0.659815
0.756657	0.657479
0.756622	0.652806
0.756464	0.651975
0.756347	0.655915
0.756358	0.655495
0.756347	0.655432
0.756256	0.655812
0.756217	0.657039
0.756199	0.660796
0.756287	0.660183
0.756252	0.655756
0.756192	0.65513
0.756185	0.655868
0.756019	0.655101
0.755928	0.658661
0.756044	0.661471
0.755931	0.658807
0.755826	0.658742
0.755822	0.659453
0.755931	0.659757
0.755776	0.6529
0.75591	0.652431
0.755794	0.652402
0.755748	0.651832
0.755752	0.649892
0.755512	0.652733
0.755519	0.65471
0.755607	0.653247
0.755463	0.653474
0.755449	0.652788
0.755403	0.652335
0.755403	0.651803
0.75529	0.654831
0.755191	0.656693
0.755339	0.657578
0.755346	0.656974
0.755322	0.653687
0.755241	0.657669
0.755019	0.655984
0.755001	0.651242
0.754927	0.656053
0.754941	0.650015
0.755001	0.652482
0.754673	0.651651
0.754945	0.656442
0.754793	0.648996
0.754666	0.647916
0.754818	0.654064
0.754694	0.655696
0.754652	0.654098
0.75467	0.652813
0.754645	0.656391
0.754652	0.656007
0.754606	0.658371
0.754508	0.65749
0.754511	0.656284
0.754515	0.65878
0.754522	0.656319
0.754451	0.657372
0.754451	0.655991
0.754381	0.657873
0.754261	0.656214
0.754236	0.654862
0.754169	0.655919
0.754183	0.657155
0.754106	0.656789
0.754134	0.656829
0.754046	0.66017
0.754014	0.65918
0.753831	0.660923
0.753827	0.651959
0.754092	0.659102
0.753841	0.646696
0.753831	0.661728
0.753841	0.662521
0.753824	0.664901
0.753834	0.661415
0.753785	0.661842
0.753732	0.666646
0.753704	0.665031
0.753665	0.664841
0.753549	0.662356
0.753454	0.662396
0.753433	0.661388
0.753404	0.661019
0.753418	0.662217
0.753383	0.658076
0.753401	0.66432
0.753426	0.661636
0.753397	0.665922
0.753246	0.66556
0.753256	0.665706
0.753299	0.662673
0.753253	0.664043
0.753108	0.663878
0.752999	0.666021
0.753108	0.664085
0.753038	0.664602
0.752985	0.663176
0.752939	0.66365
0.752918	0.66384
0.752844	0.663679
0.75284	0.660022
0.752837	0.664651
0.752675	0.664193
0.752615	0.659477
0.75283	0.663039
0.752576	0.66242
0.75258	0.660226
0.752661	0.663869
0.75259	0.66154
0.752509	0.662474
0.752509	0.663558
0.752442	0.664727
0.752428	0.66544
0.752439	0.664637
0.752418	0.661513
0.752432	0.663717
0.752432	0.666159
0.75215	0.665466
0.752407	0.661886
0.752026	0.663301
0.75203	0.657638
0.752118	0.661813
0.752157	0.663788
0.752051	0.662061
0.752005	0.662677
0.751991	0.662512
0.751748	0.657088
0.751818	0.65589
0.751815	0.659187
0.751748	0.652451
0.751751	0.653343
0.751748	0.654263
0.751639	0.654882
0.751755	0.654241
0.751702	0.661962
0.75148	0.661093
0.751667	0.660653
0.751332	0.662356
0.751579	0.662324
0.751336	0.662742
0.751332	0.662682
0.751286	0.662807
0.751329	0.663661
0.751276	0.663947
0.75124	0.663824
0.751219	0.662836
0.751198	0.65817
0.75104	0.662378
0.751191	0.664644
0.751205	0.664427
0.750941	0.663171
0.751089	0.662901
0.750962	0.660472
0.750941	0.662718
0.750937	0.661737
0.75086	0.661097
0.750888	0.657982
0.750793	0.656802
0.750768	0.659681
0.75062	0.657236
0.750567	0.660843
0.750536	0.66219
0.750469	0.662085
0.750504	0.662648
0.750514	0.660997
0.750497	0.653153
0.750451	0.658661
0.750352	0.661294
0.750472	0.663379
0.750345	0.661535
0.750359	0.662695
0.750211	0.661247
0.750215	0.660941
0.750236	0.661053
0.75006	0.660612
0.750102	0.657569
0.750014	0.656293
0.749979	0.659544
0.749951	0.659582
0.750046	0.659491
0.74976	0.660219
0.749707	0.656221
0.749933	0.652413
0.749929	0.656125
0.749831	0.656567
0.749785	0.655931
0.749728	0.654409
0.7497	0.655189
0.749612	0.65615
0.749637	0.655265
0.749587	0.652516
0.749552	0.652502
0.749489	0.653367
0.749439	0.649112
0.749408	0.649204
0.749401	0.651964
0.749521	0.647107
0.749256	0.652274
0.749256	0.648249
0.749108	0.649018
0.749098	0.647883
0.749101	0.649995
0.749122	0.650547
0.749073	0.651034
0.749115	0.651117
0.7489	0.649405
0.748854	0.65535
0.748802	0.652958
0.748837	0.650189
0.748833	0.653915
0.74884	0.653302
0.748844	0.655162
0.748826	0.655995
0.748618	0.655247
0.748428	0.654753
0.748685	0.653414
0.748654	0.657546
0.748685	0.656619
0.748604	0.657432
0.748431	0.657857
0.748435	0.658054
0.748442	0.657124
0.748431	0.658715
0.748382	0.659095
0.748386	0.655553
0.74828	0.656997
0.748269	0.657073
0.748276	0.660148
0.748273	0.661721
0.74828	0.659462
0.748259	0.658784
0.748276	0.659797
0.748206	0.660572
0.74822	0.659839
0.747906	0.660443
0.748195	0.66055
0.748012	0.660309
0.747875	0.659491
0.747864	0.66061
0.747945	0.659184
0.747868	0.661126
0.747892	0.662508
0.747836	0.661527
0.747885	0.661889
0.747832	0.658018
0.747882	0.655788
0.74766	0.655213
0.74761	0.660997
0.747561	0.658206
0.747614	0.662277
0.74761	0.658049
0.747617	0.657783
0.7476	0.659267
0.747543	0.665218
0.747536	0.66219
0.74754	0.662365
0.747388	0.665444
0.747378	0.654071
0.747364	0.66095
0.747226	0.660161
0.747307	0.653197
0.747184	0.659685
0.747187	0.660885
0.74711	0.66135
0.747099	0.659553
0.747039	0.662695
0.747187	0.663545
0.747057	0.66293
0.747053	0.664065
0.747046	0.664322
0.747039	0.663701
0.747043	0.663853
0.746948	0.654708
0.74687	0.658181
0.746789	0.665328
0.746807	0.663292
0.746793	0.663115
0.746722	0.665813
0.746708	0.665525
0.746652	0.662796
0.746697	0.663936
0.746606	0.664365
0.746398	0.664736
0.746472	0.664716
0.746306	0.660999
0.746384	0.661848
0.746373	0.663761
0.746292	0.66371
0.746366	0.65733
0.746236	0.663971
0.746373	0.663089
0.746334	0.660333
0.746275	0.65726
0.746215	0.660476
0.746201	0.661623
0.746197	0.659294
0.746105	0.662563
0.746232	0.660852
0.746014	0.664213
0.745943	0.665317
0.745919	0.66394
0.745855	0.665701
0.745795	0.665692
0.74582	0.661144
0.745809	0.666363
0.745809	0.661708
0.745802	0.665677
0.745552	0.663583
0.745756	0.663017
0.745813	0.659562
0.745682	0.660105
0.745619	0.65992
0.745467	0.660545
0.745489	0.660543
0.74545	0.657361
0.745386	0.658244
0.745393	0.658103
0.745383	0.662349
0.745178	0.658009
0.74539	0.656813
0.74539	0.655792
0.745362	0.655826
0.745323	0.65688
0.745231	0.656337
0.745263	0.65549
0.745185	0.654049
0.745136	0.659258
0.745133	0.660112
0.745037	0.659902
0.745073	0.655401
0.744985	0.660206
0.744963	0.659703
0.744886	0.658152
0.744935	0.658025
0.744872	0.659678
0.744819	0.658375
0.74497	0.658735
0.744713	0.657432
0.744699	0.656228
0.744703	0.655126
0.744706	0.656407
0.744526	0.657075
0.744699	0.657133
0.744625	0.655278
0.744646	0.657352
0.744607	0.649005
0.744555	0.654344
0.744491	0.651327
0.744562	0.651048
0.744544	0.6517
0.744442	0.650335
0.744354	0.648368
0.74429	0.655307
0.744262	0.656918
0.744206	0.657517
0.744294	0.653571
0.744213	0.656581
0.744153	0.655669
0.744135	0.657128
0.744132	0.656538
0.744146	0.657081
0.744132	0.655906
0.744149	0.65699
0.744142	0.657701
0.744111	0.658116
0.743878	0.659627
0.744121	0.657104
0.743931	0.658516
0.743934	0.658791
0.743874	0.656572
0.743793	0.658051
0.743797	0.659175
0.743814	0.657385
0.743737	0.658467
0.743748	0.654002
0.743716	0.65756
0.743645	0.647445
0.743494	0.653738
0.743455	0.654777
0.743455	0.658264
0.743416	0.655886
0.743656	0.658387
0.74342	0.655736
0.743455	0.661692
0.743459	0.661448
0.743473	0.658154
0.743413	0.660069
0.743409	0.661647
0.743293	0.655644
0.743314	0.655363
0.743384	0.654813
0.743328	0.657003
0.743339	0.660248
0.743212	0.659958
0.743282	0.65945
0.743074	0.658105
0.743071	0.662731
0.743036	0.660747
0.743039	0.662289
0.743053	0.664302
0.74305	0.662782
0.743046	0.661627
0.742912	0.660157
0.743036	0.660688
0.742891	0.658422
0.742877	0.663475
0.742891	0.6623
0.742895	0.659942
0.742912	0.663513
0.742782	0.664669
0.742888	0.661142
0.742757	0.663337
0.742627	0.662371
0.74263	0.663712
0.742623	0.663196
0.742507	0.663471
0.742528	0.661124
0.7425	0.661817
0.742539	0.660709
0.742595	0.661459
0.742553	0.661475
0.742338	0.663019
0.742503	0.662939
0.742472	0.661748
0.742207	0.661953
0.742429	0.662452
0.742225	0.66173
0.742214	0.662009
0.7422	0.661042
0.742264	0.662912
0.742088	0.663949
0.742105	0.664546
0.742109	0.663726
0.74214	0.66436
0.742112	0.665154
0.742006	0.665884
0.742056	0.664213
0.74207	0.665618
0.741876	0.665033
0.742006	0.669071
0.741806	0.668486
0.74182	0.661714
0.741809	0.666778
0.741665	0.664787
0.741784	0.665627
0.741777	0.666474
0.74176	0.664322
0.741721	0.664778
0.7414	0.664906
0.741636	0.66603
0.741534	0.664114
0.741555	0.667093
0.741414	0.663169
0.741407	0.656407
0.741362	0.655991
0.741411	0.663659
0.741316	0.65945
0.741316	0.66548
0.741235	0.662905
0.741242	0.661062
0.741245	0.664021
0.741221	0.663884
0.741062	0.658775
0.741217	0.65933
0.741221	0.657844
0.740925	0.657984
0.741108	0.653405
0.740981	0.657616
0.741118	0.652981
0.741034	0.65783
0.740872	0.66327
0.740907	0.663627
0.740854	0.659479
0.740829	0.659055
0.740854	0.659998
0.740706	0.655837
0.740808	0.655274
0.740607	0.65564
0.740547	0.657169
0.740583	0.656567
0.74059	0.658007
0.740569	0.656829
0.740695	0.655034
0.740558	0.650817
0.740569	0.658798
0.740558	0.658239
0.740421	0.655191
0.74054	0.653419
0.740484	0.654002
0.740442	0.65166
0.740438	0.654091
0.740424	0.653396
0.740329	0.654102
0.740209	0.65507
0.740241	0.655479
0.740213	0.656147
0.740163	0.653926
0.740124	0.653595
0.740156	0.653117
0.740089	0.654842
0.740022	0.654576
0.74016	0.64736
0.740177	0.652974
0.740019	0.656757
0.740012	0.654909
0.739895	0.656078
0.739991	0.656947
0.740022	0.654549
0.740022	0.654136
0.739994	0.65185
0.739955	0.651403
0.739874	0.65467
0.739772	0.65526
0.739825	0.655041
0.739758	0.651745
0.739698	0.656042
0.739726	0.65526
0.739694	0.65023
0.739652	0.653296
0.739596	0.655401
0.739599	0.657658
0.739582	0.652536
0.739606	0.652681
0.739571	0.653671
0.739599	0.655323
0.739575	0.652379
0.739571	0.654339
0.739353	0.654621
0.739279	0.653807
0.739504	0.653345
0.739462	0.653783
0.739367	0.657231
0.739314	0.660139
0.739321	0.656272
0.739353	0.657175
0.739307	0.656154
0.739265	0.659126
0.739198	0.660675
0.739176	0.658049
0.739191	0.660769
0.739095	0.654786
0.739078	0.657164
0.739173	0.660226
0.739035	0.656572
0.739183	0.6533
0.73893	0.65865
0.738877	0.659895
0.73888	0.660418
0.739145	0.656635
0.738803	0.652994
0.738831	0.653066
0.738951	0.651908
0.738792	0.652252
0.738894	0.653043
0.738775	0.653814
0.73887	0.653517
0.738838	0.654049
0.738775	0.655837
0.738764	0.653892
0.738725	0.653723
0.738655	0.659035
0.73862	0.658764
0.738535	0.662581
0.738546	0.662736
0.738503	0.657593
0.738503	0.657613
0.738521	0.658275
0.738415	0.658183
0.738517	0.658181
0.738352	0.656597
0.738345	0.65973
0.738443	0.661292
0.738447	0.654791
0.738345	0.660928
0.738394	0.66068
0.738338	0.66
0.738257	0.65884
0.738348	0.658952
0.738144	0.658626
0.738151	0.658921
0.737946	0.662758
0.738087	0.658787
0.73808	0.662159
0.73795	0.660302
0.737964	0.659801
0.737992	0.661357
0.737932	0.659904
0.737953	0.66141
0.737957	0.660586
0.737851	0.65792
0.737953	0.662595
0.737707	0.660105
0.737682	0.66156
0.737872	0.661019
0.737679	0.66074
0.737693	0.659926
0.737837	0.657267
0.73776	0.657488
0.737612	0.654976
0.737633	0.659162
0.737555	0.657803
0.737573	0.657924
0.737552	0.657439
0.737474	0.660078
0.737351	0.658939
0.737442	0.658002
0.737411	0.657707
0.737263	0.659439
0.73728	0.651472
0.737227	0.654505
0.73722	0.660139
0.73716	0.659687
0.737178	0.658217
0.737287	0.656308
0.737146	0.660606
0.737171	0.654469
0.737245	0.659323
0.737231	0.657877
0.737139	0.658954
0.737146	0.659667
0.736889	0.660856
0.737069	0.660204
0.736981	0.662508
0.73696	0.660434
0.736917	0.660047
0.736819	0.660831
0.736889	0.660925
0.736759	0.658025
0.736773	0.649984
0.736738	0.6532
0.736664	0.650198
0.736688	0.656226
0.73672	0.657908
0.736575	0.65636
0.73672	0.659079
0.736473	0.659739
0.736727	0.658733
0.73647	0.655021
0.736597	0.65535
0.736554	0.654585
0.736477	0.65364
0.736473	0.655314
0.73647	0.654301
0.736438	0.65457
0.736459	0.655564
0.73635	0.65421
0.73636	0.65589
0.736248	0.653546
0.736322	0.652864
0.736318	0.6529
0.736255	0.658726
0.73629	0.652795
0.736184	0.650831
0.736075	0.65145
0.736064	0.651973
0.736071	0.651117
0.736019	0.649622
0.736057	0.651396
0.735955	0.651088
0.736061	0.653164
0.735966	0.655253
0.736061	0.651521
0.736064	0.653291
0.735906	0.654744
0.735909	0.65358
0.735899	0.65374
0.735913	0.653255
0.735899	0.655466
0.735899	0.655602
0.735849	0.654882
0.735842	0.648435
0.735744	0.654337
0.735747	0.651626
0.735684	0.653074
0.735765	0.652442
0.735652	0.651973
0.73567	0.653206
0.735656	0.650035
0.73555	0.651262
0.735585	0.6568
0.735666	0.656498
0.735645	0.655604
0.735634	0.6565
0.73562	0.654976
0.73531	0.658065
0.735303	0.656623
0.735567	0.654795
0.735247	0.650069
0.735508	0.658494
0.7355	0.657937
0.735381	0.652538
0.73536	0.65528
0.735314	0.658215
0.735243	0.65054
0.73537	0.654344
0.735229	0.654212
0.735092	0.655484
0.735236	0.656994
0.735148	0.65486
0.735137	0.65448
0.735155	0.654972
0.735099	0.654601
0.735123	0.654161
0.735035	0.654232
0.735021	0.658147
0.735021	0.659032
0.735074	0.657651
0.734863	0.657169
0.735085	0.656695
0.734831	0.656163
0.735085	0.657855
0.735039	0.659254
0.734831	0.656771
0.734915	0.656791
0.734831	0.655218
0.734803	0.656693
0.734838	0.659578
0.734774	0.656297
0.734746	0.657832
0.734799	0.656954
0.734722	0.664056
0.734715	0.665297
0.734676	0.662993
0.734531	0.663527
0.734591	0.660148
0.734637	0.664253
0.734482	0.661839
0.734408	0.659752
0.734461	0.663448
0.734411	0.663252
0.734411	0.664403
0.734415	0.66186
0.734373	0.662239
0.734285	0.65663
0.734426	0.658715
0.73426	0.656769
0.734239	0.656954
0.734263	0.662235
0.734242	0.655564
0.734309	0.656999
0.734306	0.65853
0.734168	0.660954
0.734207	0.658185
0.734144	0.657899
0.734098	0.66183
0.734063	0.658241
0.73401	0.655812
0.733992	0.656474
0.733964	0.661594
0.733939	0.662061
0.733918	0.662356
0.7339	0.655115
0.733876	0.66266
0.733904	0.660793
0.733865	0.661848
0.733738	0.662067
0.733682	0.660626
0.733872	0.659178
0.733615	0.661813
0.733798	0.656744
0.733735	0.660317
0.733668	0.653754
0.733611	0.660255
0.733608	0.663031
0.733618	0.658308
0.733576	0.661886
0.733537	0.658691
0.733502	0.658177
0.733527	0.657826
0.733474	0.659879
0.733456	0.658708
0.733358	0.66171
0.733305	0.662011
0.733263	0.661104
0.733322	0.653921
0.733206	0.656252
0.733196	0.660324
0.733143	0.654865
0.733192	0.652746
0.733104	0.651077
0.733199	0.657794
0.733203	0.652076
0.733051	0.656375
0.73304	0.658805
0.733167	0.649932
0.733136	0.64707
0.733062	0.657066
0.733107	0.647213
0.733079	0.648292
0.733012	0.657533
0.733023	0.655224
0.732963	0.655611
0.733019	0.653959
0.732861	0.653115
0.732847	0.65332
0.732804	0.648189
0.732804	0.65351
0.732797	0.652073
0.732783	0.651454
0.732702	0.651416
0.73267	0.648332
0.732692	0.651919
0.732744	0.653193
0.732773	0.656438
0.732632	0.652067
0.732462	0.651003
0.732766	0.653247
0.732713	0.654529
0.73266	0.65492
0.732699	0.657669
0.732388	0.65861
0.732625	0.657041
0.732582	0.656956
0.732445	0.647896
0.732392	0.659182
0.732378	0.654552
0.732431	0.65442
0.732374	0.655135
0.732321	0.655361
0.732307	0.660248
0.732286	0.657408
0.732307	0.657511
0.732258	0.657245
0.732247	0.657663
0.732269	0.656722
0.732226	0.653121
0.732142	0.65537
0.73223	0.655799
0.732237	0.656427
0.73224	0.657743
0.732216	0.657222
0.73224	0.657591
0.732226	0.656127
0.732205	0.659759
0.73193	0.659553
0.732138	0.659678
0.732057	0.660179
0.731994	0.657475
0.731877	0.658726
0.731976	0.657873
0.731969	0.65796
0.731814	0.656351
0.731821	0.655124
0.731927	0.659998
0.731941	0.656865
0.731867	0.659696
0.73181	0.657473
0.731846	0.658682
0.731849	0.658268
0.731814	0.655508
0.731772	0.655611
0.731818	0.658778
0.731751	0.657595
0.731743	0.660364
0.731624	0.657955
0.731627	0.659596
0.731588	0.658487
0.73156	0.65794
0.73155	0.660132
0.73155	0.657222
0.731546	0.656141
0.73155	0.658255
0.731567	0.659332
0.731405	0.655812
0.731504	0.657725
0.731409	0.657323
0.731543	0.657321
0.731504	0.659835
0.731458	0.658657
0.731458	0.65741
0.731423	0.656659
0.731423	0.658431
0.731342	0.656002
0.731384	0.657844
0.731229	0.656639
0.73119	0.655989
0.731338	0.657486
0.731215	0.656981
0.731141	0.655242
0.731084	0.655531
0.731134	0.656114
0.731116	0.655269
0.731088	0.653792
0.731074	0.656907
0.731025	0.657064
0.730993	0.654784
0.730975	0.653546
0.731	0.654134
0.730989	0.653419
0.730993	0.657198
0.731003	0.65242
0.730989	0.656335
0.730996	0.65709
0.730721	0.659636
0.730704	0.657571
0.730965	0.65657
0.730728	0.65747
0.730834	0.65631
0.730891	0.652156
0.730725	0.655309
0.730728	0.655662
0.730669	0.650688
0.730626	0.651716
0.730626	0.652643
0.730616	0.649324
0.73063	0.649608
0.730584	0.656313
0.730573	0.651313
0.730591	0.651921
0.730401	0.649973
0.730439	0.656766
0.730387	0.657108
0.730334	0.655761
0.730327	0.653041
0.730577	0.656664
0.730327	0.657336
0.73033	0.652826
0.730316	0.656228
0.730316	0.657249
0.73033	0.658067
0.73032	0.657437
0.73027	0.658753
0.730249	0.659676
0.730288	0.657971
0.73021	0.659665
0.730172	0.657618
0.730094	0.655012
0.730186	0.65488
0.730136	0.660364
0.730038	0.658353
0.730024	0.660921
0.729946	0.660125
0.729914	0.656454
0.729918	0.656252
0.729872	0.655714
0.730101	0.651843
0.729847	0.652585
0.729791	0.651861
0.729742	0.651052
0.729763	0.650136
0.729742	0.652531
0.729632	0.647972
0.729706	0.64816
0.729639	0.650726
0.729738	0.652645
0.729735	0.652972
0.729749	0.651296
0.729474	0.650433
0.729639	0.651917
0.729742	0.651749
0.729629	0.653028
0.729657	0.652518
0.729481	0.649092
0.72952	0.649438
0.729643	0.652093
0.72953	0.650618
0.729491	0.651953
0.729474	0.650817
0.729428	0.652151
0.729407	0.647443
0.729386	0.649796
0.729488	0.649324
0.733597	0.650328
0.733798	0.652051
0.729756	0.650902
0.730182	0.654932
0.730348	0.652033
0.730877	0.655674
0.731158	0.655571
0.731553	0.654241
0.73181	0.651783
0.732216	0.651814
0.732551	0.655318
0.732988	0.654757
0.733185	0.654717
0.733421	0.655446
0.73384	0.653991
0.73408	0.653796
0.734408	0.654809
0.734831	0.654415
0.735092	0.650478
0.735271	0.651081
0.735645	0.652429
0.736078	0.649758
0.736378	0.651365
0.736734	0.650471
0.737048	0.651883
0.737245	0.651159
0.737738	0.647682
0.738042	0.644969
0.738401	0.648562
0.738736	0.640057
0.738965	0.648033
0.739342	0.647735
0.739599	0.647186
0.740022	0.649604
0.74029	0.650388
0.740614	0.648165
0.740928	0.643266
0.741263	0.645552
0.741612	0.646589
0.741968	0.643257
0.742225	0.645387
0.742616	0.645536
0.742902	0.647803
0.743166	0.638975
0.743469	0.644301
0.743832	0.639768
0.744188	0.642256
0.744364	0.641592
0.744819	0.642077
0.745055	0.640682
0.745393	0.642249
0.745809	0.642944
0.746229	0.643592
0.746366	0.643556
0.746652	0.643123
0.747046	0.643132
0.747272	0.643275
0.747772	0.642578
0.747956	0.643726
0.748396	0.646786
0.748661	0.647892
0.748851	0.64953
0.749203	0.649114
0.749605	0.645635
0.749929	0.64515
0.750077	0.643188
0.750507	0.647432
0.7508	0.64209
0.75124	0.64875
0.751512	0.646339
0.751808	0.64675
0.752065	0.647335
0.752418	0.647829
0.752837	0.647575
0.753112	0.648337
0.753341	0.647901
0.75351	0.648851
0.754088	0.648274
0.754254	0.652176
0.754624	0.654286
0.754906	0.650344
0.755283	0.651182
0.755501	0.649686
0.7559	0.650677
0.756323	0.653984
0.75659	0.657549
0.75676	0.657499
0.757179	0.657142
0.757436	0.65358
0.757852	0.653615
0.758	0.653036
0.758427	0.654938
0.758709	0.656862
0.759103	0.655173
0.759241	0.656404
0.759547	0.656404
0.759953	0.657832
0.760347	0.659129
0.76052	0.657779
0.760795	0.65459
0.761183	0.656699
0.761334	0.658489
0.761725	0.656751
0.762007	0.656297
0.762416	0.654176
0.762554	0.656129
0.762938	0.654827
0.763206	0.654648
0.763364	0.653709
0.764013	0.653631
0.764171	0.656015
0.764457	0.654306
0.764809	0.654827
0.764985	0.654706
0.765419	0.654288
0.765616	0.655186
0.765948	0.654672
0.766247	0.655247
0.766557	0.651711
0.766783	0.6525
0.767146	0.652187
0.767382	0.651564
0.767805	0.651418
0.768161	0.651912
0.768228	0.653041
0.768665	0.652876
0.76906	0.6536
0.769218	0.65566
0.769588	0.653913
0.769874	0.651588
0.770195	0.653939
0.770424	0.65242
0.770522	0.651711
0.771009	0.651423
0.771276	0.651094
0.771573	0.651825
0.771957	0.652366
0.772108	0.652786
0.772366	0.653872
0.772686	0.655788
0.773176	0.654853
0.773338	0.65324
0.773652	0.651698
0.773863	0.651215
0.774195	0.653448
0.77447	0.654091
0.774596	0.653385
0.77497	0.644774
0.775333	0.644721
0.77559	0.652552
0.775837	0.643413
0.776147	0.644502
0.776521	0.647331
0.776693	0.654699
0.777127	0.65408
0.777268	0.652563
0.777691	0.653128
0.777913	0.652952
0.778156	0.649948
0.778568	0.650011
0.77879	0.653892
0.778988	0.649868
0.779425	0.650026
0.779474	0.650963
0.779904	0.645521
0.780239	0.650006
0.780429	0.653007
0.780803	0.65143
0.781088	0.652464
0.781222	0.650855
0.781554	0.653593
0.7818	0.644801
0.782146	0.644636
0.78234	0.647999
0.782727	0.648971
0.782875	0.649724
0.783267	0.644073
0.783577	0.644285
0.783721	0.643062
0.784186	0.644111
0.78438	0.643793
0.784507	0.640148
0.784927	0.64003
0.785194	0.642776
0.78549	0.640888
0.785779	0.646339
0.786121	0.643901
0.786389	0.643541
0.786583	0.64275
0.78695	0.643478
0.787094	0.642146
0.787387	0.646504
0.787802	0.645637
0.788056	0.644732
0.78819	0.64422
0.788634	0.64521
0.788736	0.645818
0.789103	0.645373
0.789455	0.643856
0.789691	0.644605
0.79009	0.643744
0.790231	0.642933
0.790587	0.643375
0.790795	0.644305
0.791084	0.646913
0.791327	0.643934
0.791651	0.645865
0.79182	0.641214
0.792226	0.641163
0.792412	0.641232
0.792729	0.645402
0.792997	0.646656
0.793262	0.645905
0.79354	0.646623
0.793826	0.646725
0.794206	0.645617
0.794305	0.64586
0.79471	0.645481
0.79483	0.644289
0.795098	0.644754
0.795433	0.646978
0.795866	0.645436
0.795923	0.646205
0.796282	0.647032
0.796444	0.646379
0.796779	0.650046
0.797043	0.643284
0.79741	0.651946
0.797554	0.651521
0.797949	0.649362
0.798354	0.649358
0.798411	0.653019
0.798668	0.653555
0.798939	0.653421
0.79919	0.653019
0.799532	0.652181
0.799796	0.651631
0.800117	0.655177
0.80049	0.657466
0.800585	0.654941
0.80098	0.655394
0.801043	0.656226
0.801477	0.657195
0.801678	0.652983
0.801896	0.655649
0.802129	0.656319
0.802517	0.653635
0.802823	0.654715
0.802971	0.652219
0.80332	0.654728
0.803546	0.649914
0.803863	0.656764
0.803997	0.658215
0.804311	0.654938
0.804582	0.655513
0.804984	0.654755
0.805058	0.654304
0.805435	0.656098
0.805569	0.653566
0.805907	0.65071
0.806231	0.64578
0.806386	0.652444
0.806781	0.653066
0.806954	0.653206
0.807331	0.651401
0.807514	0.653521
0.807821	0.651553
0.807965	0.651224
0.808311	0.649986
0.808649	0.651025
0.808762	0.647604
0.80916	0.647132
0.809301	0.646511
0.809668	0.650375
0.809988	0.651539
0.810108	0.652268
0.810404	0.647657
0.810637	0.642289
0.81082	0.643159
0.81106	0.644935
0.811433	0.650491
0.811817	0.652773
0.811923	0.651356
0.812226	0.64924
0.812434	0.649083
0.812649	0.64972
0.812917	0.647217
0.813333	0.648185
0.813488	0.64955
0.81371	0.648395
0.813904	0.648357
0.814186	0.648404
0.814563	0.647061
0.81463	0.647434
0.814979	0.648701
0.81512	0.650558
0.815441	0.649005
0.815797	0.646636
0.815892	0.649392
0.816181	0.650513
0.816375	0.649693
0.816692	0.64654
0.817009	0.649646
0.81715	0.646529
0.817524	0.64641
0.817647	0.648064
0.817742	0.648692
0.818091	0.650837
0.818422	0.65046
0.818637	0.648404
0.818905	0.646124
0.819102	0.644593
0.819367	0.644663
0.819589	0.644048
0.819853	0.644298
0.820103	0.646938
0.820357	0.646692
0.820607	0.646077
0.820805	0.64433
0.821136	0.645434
0.821288	0.647125
0.821626	0.64816
0.82201	0.643235
0.82225	0.645986
0.822405	0.644694
0.822535	0.644537
0.822866	0.64814
0.823155	0.648504
0.823293	0.647342
0.823702	0.644723
0.823765	0.645045
0.824139	0.644848
0.824519	0.641751
0.824579	0.644372
0.824872	0.644341
0.825101	0.647637
0.82539	0.642218
0.825513	0.643778
0.82582	0.645284
0.826144	0.647434
0.826268	0.642443
0.826676	0.645364
0.827039	0.640754
0.827099	0.64214
0.827438	0.643556
0.827522	0.637386
0.827878	0.643279
0.827998	0.639847
0.828255	0.642669
0.828668	0.644473
0.828759	0.642296
0.829087	0.642689
0.829232	0.63969
0.829521	0.644488
0.829654	0.644511
0.829951	0.643512
0.830046	0.644625
0.830454	0.645896
0.830839	0.646944
0.830891	0.640649
0.831262	0.643791
0.831561	0.644781
0.831716	0.645016
0.83191	0.645507
0.832125	0.645364
0.832393	0.647492
0.832548	0.642933
0.832911	0.648486
0.833228	0.645063
0.833394	0.646582
0.833662	0.646806
0.833908	0.649467
0.834144	0.64437
0.834261	0.649143
0.834603	0.648388
0.834895	0.643834
0.835022	0.647943
0.835378	0.648381
0.83566	0.647807
0.835738	0.648853
0.836111	0.647496
0.836263	0.6498
0.836538	0.649738
0.836671	0.645123
0.837052	0.643527
0.837158	0.648694
0.837408	0.641536
0.837803	0.649132
0.837919	0.650274
0.83825	0.650093
0.838525	0.650759
0.838642	0.651439
0.839005	0.653624
0.839153	0.653906
0.839435	0.643704
0.839561	0.649861
0.839847	0.65134
0.840154	0.649146
0.840221	0.650831
0.840573	0.650368
0.84077	0.649727
0.841045	0.648509
0.841295	0.649244
0.841436	0.648833
0.841775	0.648151
0.842007	0.648026
0.84212	0.647957
0.842325	0.652346
0.842614	0.648489
0.842903	0.649168
0.842892	0.652619
0.843234	0.652661
0.843495	0.65347
0.843632	0.6529
0.843992	0.652648
0.844309	0.65166
0.844425	0.65275
0.844728	0.651776
0.844883	0.652319
0.845137	0.650766
0.845285	0.65012
0.845609	0.649914
0.84569	0.649684
0.845863	0.648878
0.846166	0.648938
0.846385	0.647885
0.846628	0.649555
0.846931	0.648571
0.847185	0.649298
0.847361	0.645543
0.84766	0.648279
0.84765	0.648777
0.848031	0.646307
0.848161	0.649966
0.848432	0.64991
0.848718	0.650873
0.848982	0.651501
0.849144	0.650654
0.849402	0.652505
0.849673	0.651977
0.849772	0.65136
0.849835	0.649523
0.850163	0.645239
0.850515	0.643
0.850572	0.650355
0.850829	0.650395
0.85109	0.648958
0.851245	0.650046
0.851502	0.648831
0.851767	0.649318
0.851936	0.651313
0.852225	0.650817
0.852538	0.650019
0.852672	0.65132
0.852746	0.651173
0.853152	0.650934
0.853279	0.650989
0.853405	0.650618
0.853694	0.650685
0.853895	0.650871
0.854227	0.650062
0.854325	0.650127
0.854586	0.649975
0.854709	0.647324
0.854924	0.64928
0.855213	0.650227
0.855474	0.648211
0.855573	0.647744
0.855876	0.646627
0.856042	0.645148
0.856334	0.646397
0.856436	0.645805
0.856732	0.638302
0.856884	0.63908
0.856972	0.642385
0.857332	0.643744
0.857547	0.643693
0.857684	0.63828
0.858015	0.641348
0.858117	0.640405
0.858414	0.641963
0.858791	0.638474
0.858815	0.641094
0.859094	0.642072
0.859376	0.638479
0.859517	0.642866
0.859622	0.638973
0.860045	0.639127
0.860133	0.641082
0.860426	0.64001
0.860542	0.643273
0.860842	0.641221
0.861177	0.641547
0.861293	0.642088
0.861413	0.638796
0.861712	0.641427
0.861822	0.638977
0.862178	0.639136
0.862297	0.641346
0.862551	0.640484
0.862847	0.640924
0.863041	0.645568
0.863147	0.644372
0.863401	0.643979
0.86357	0.645257
0.863897	0.643885
0.863954	0.644258
0.864268	0.644727
0.864497	0.64462
0.864736	0.644848
0.864898	0.643357
0.865131	0.640231
0.865459	0.640805
0.86555	0.639652
0.865818	0.638541
0.86604	0.64117
0.866343	0.642359
0.86646	0.641558
0.866558	0.643778
0.866823	0.641947
0.866918	0.64159
0.867221	0.642086
0.867535	0.640052
0.86757	0.643404
0.867827	0.648368
0.868116	0.647324
0.868187	0.648234
0.868518	0.647016
0.868772	0.648055
0.868835	0.647722
0.869149	0.647999
0.869321	0.642638
0.869589	0.641929
0.869751	0.648589
0.869981	0.642155
0.870107	0.651072
0.870442	0.650198
0.870481	0.6493
0.87077	0.648663
0.870992	0.649034
0.871168	0.645603
0.871482	0.649566
0.871725	0.651144
0.871707	0.650384
0.872049	0.650802
0.872236	0.650761
0.872493	0.650462
0.872691	0.647351
0.872997	0.642376
0.873061	0.64685
0.873343	0.648793
0.873593	0.645416
0.873674	0.65326
0.873907	0.648605
0.874009	0.648442
0.874333	0.646593
0.874351	0.648913
0.874583	0.65018
0.874908	0.647838
0.875172	0.649063
0.875228	0.650527
0.875507	0.64749
0.875732	0.648708
0.875887	0.6478
0.876039	0.646929
0.876395	0.64822
0.876423	0.646696
0.87668	0.647465
0.87699	0.647474
0.877026	0.644564
0.877241	0.64879
0.877505	0.645416
0.877593	0.645961
0.877865	0.649966
0.878072	0.648831
0.878157	0.648176
0.878439	0.647756
0.878749	0.646571
0.878791	0.648296
0.878883	0.648138
0.879274	0.649876
0.879292	0.649398
0.879606	0.648951
0.879722	0.649964
0.879993	0.648907
0.880113	0.64214
0.880155	0.647116
0.880547	0.648433
0.880804	0.649094
0.880804	0.647032
0.88097	0.645706
0.881304	0.645534
0.881385	0.648922
0.881639	0.648149
0.88177	0.647438
0.881999	0.648384
0.882207	0.647776
0.882358	0.648788
0.882647	0.64652
0.882866	0.644345
0.883028	0.646066
0.883162	0.646111
0.883419	0.650102
0.883511	0.648623
0.88374	0.650815
0.883761	0.648723
0.88393	0.64428
0.884233	0.649074
0.884356	0.647474
0.884533	0.648393
0.884857	0.64742
0.885016	0.646272
0.885111	0.649436
0.885389	0.649693
0.885534	0.649523
0.885636	0.648717
0.885826	0.648361
0.885925	0.649224
0.886344	0.649814
0.886443	0.648587
0.886665	0.648247
0.886915	0.644059
0.887017	0.64561
0.887165	0.644768
0.887426	0.64723
0.887497	0.647858
0.887691	0.645581
0.887962	0.64148
0.887997	0.641382
0.888244	0.642955
0.888406	0.641914
0.888558	0.642408
0.888829	0.646064
0.889051	0.641793
0.889118	0.643753
0.889336	0.644106
0.889587	0.644779
0.889647	0.642305
0.889904	0.644694
0.890175	0.640454
0.890316	0.638816
0.890471	0.639451
0.890707	0.638785
0.890767	0.640779
0.890954	0.639751
0.891183	0.640365
0.891483	0.63929
0.891553	0.636738
0.891814	0.63807
0.891969	0.63881
0.892012	0.639395
0.892198	0.634856
0.892487	0.641552
0.892533	0.644506
0.892787	0.642531
0.892945	0.643179
0.893178	0.638597
0.893333	0.645507
0.893583	0.644312
0.893703	0.645568
0.893788	0.643597
0.894038	0.64637
0.894373	0.645329
0.894415	0.644247
0.894577	0.646205
0.894817	0.644819
0.894901	0.643901
0.895032	0.644558
0.895356	0.644196
0.895388	0.644622
0.895666	0.645706
0.895814	0.643255
0.896114	0.64407
0.896149	0.639721
0.896371	0.641889
0.896597	0.639639
0.896621	0.639992
0.896843	0.642654
0.897136	0.643521
0.897277	0.641538
0.897661	0.638528
0.897633	0.646909
0.89776	0.646947
0.897865	0.649275
0.898137	0.646893
0.89826	0.647693
0.89838	0.649872
0.898609	0.648122
0.898856	0.648209
0.89893	0.648647
0.899053	0.648317
0.899356	0.647208
0.899494	0.649405
0.899649	0.649731
0.89986	0.650556
0.900058	0.650542
0.900163	0.648223
0.900315	0.648073
0.900607	0.645174
0.900706	0.648596
0.900999	0.647981
0.90109	0.642584
0.901136	0.648357
0.901256	0.646459
0.901482	0.647684
0.901693	0.644513
0.901816	0.648567
0.901964	0.646448
0.902225	0.647221
0.902401	0.650692
0.902394	0.650858
0.902641	0.651926
0.902881	0.647834
0.903053	0.648111
0.903145	0.643576
0.903275	0.649651
0.903494	0.650529
0.903695	0.651745
0.903748	0.651957
0.903987	0.651705
0.904202	0.651226
0.904431	0.650397
0.904463	0.651814
0.904703	0.652757
0.904727	0.649843
0.904883	0.651255
0.90508	0.651888
0.905256	0.652145
0.905309	0.650723
0.905422	0.651874
0.905714	0.650574
0.905905	0.651345
0.905975	0.652147
0.906042	0.65027
0.906264	0.650203
0.90649	0.651168
0.906493	0.648983
0.906719	0.651063
0.906817	0.651852
0.907121	0.652686
0.907202	0.650339
0.907247	0.65223
0.907469	0.650596
0.907716	0.650406
0.907765	0.646274
0.907854	0.65048
0.908104	0.644403
0.908164	0.647771
0.908428	0.644446
0.908463	0.650203
0.908587	0.653899
0.908851	0.652844
0.908847	0.652634
0.909031	0.652087
0.909218	0.650938
0.909274	0.65181
0.909429	0.653137
0.909626	0.652661
0.909799	0.648764
0.909982	0.652024
0.910092	0.65054
0.910211	0.648084
0.910335	0.647461
0.910514	0.650019
0.910663	0.650489
0.910666	0.653381
0.910959	0.653135
0.911071	0.65229
0.911286	0.654056
0.911329	0.650936
0.911477	0.651101
0.911709	0.652093
0.911699	0.650692
0.911854	0.650022
0.912012	0.653702
0.912203	0.651906
0.912326	0.650994
0.912407	0.650706
0.912597	0.652719
0.912809	0.648625
0.913013	0.642376
0.913017	0.64062
0.913197	0.646759
0.91345	0.648102
0.913521	0.645022
0.913817	0.646053
0.913722	0.645784
0.913912	0.643559
0.913993	0.645628
0.914247	0.645646
0.914377	0.635319
0.914349	0.636798
0.914677	0.639138
0.914786	0.641862
0.914842	0.639426
0.915089	0.643943
0.915149	0.644877
0.915244	0.644269
0.915346	0.641744
0.915519	0.64243
0.915671	0.641675
0.915917	0.644048
0.915931	0.645852
0.916055	0.643512
0.916302	0.641807
0.91646	0.643909
0.916509	0.641176
0.916534	0.640745
0.916788	0.642732
0.91695	0.64285
0.917158	0.641498
0.917288	0.640571
0.917285	0.642557
0.917331	0.6434
0.917606	0.642839
0.917743	0.643713
0.917746	0.641608
0.917905	0.641453
0.918021	0.643147
0.918159	0.64161
0.918434	0.641221
0.91842	0.639145
0.918575	0.638459
0.918709	0.640028
0.918836	0.640564
0.918864	0.637368
0.918959	0.639688
0.919184	0.638631
0.919308	0.638356
0.919287	0.640863
0.919678	0.641203
0.919583	0.637066
0.919724	0.635046
0.919826	0.631428
0.920023	0.638045
0.920097	0.637013
0.920161	0.635209
0.920242	0.634045
0.920481	0.635124
0.92058	0.631993
0.920559	0.62823
0.92064	0.628051
0.920901	0.629144
0.920904	0.626482
0.92101	0.625316
0.921274	0.624469
0.921331	0.622947
0.921324	0.620178
0.921327	0.621286
0.921475	0.620283
0.921556	0.616734
0.921768	0.607688
0.921824	0.607236
0.921852	0.611592
0.92187	0.602954
0.922099	0.598301
0.922141	0.600684
0.922233	0.599736
0.922265	0.597613
0.922254	0.597032
0.92248	0.595758
0.922504	0.593378
0.922589	0.588924
0.922702	0.585252
0.922804	0.582957
0.922959	0.579147
0.922748	0.57474
0.922966	0.568663
0.922984	0.567182
0.923033	0.563955
0.923086	0.560584
0.923248	0.55445
0.923396	0.550358
0.923495	0.546065
0.923509	0.540295
0.923438	0.538145
0.923541	0.534862
0.923597	0.533684
0.923646	0.528385
0.923787	0.516684
0.923847	0.517589
0.923907	0.510844
0.923992	0.509383
0.923935	0.504442
0.923942	0.499013
0.9242	0.494454
0.92421	0.492114
0.924228	0.487899
0.924312	0.483081
0.924344	0.478694
0.924545	0.47399
0.924503	0.46893
0.924605	0.463717
0.924683	0.459508
0.924707	0.451479
0.924774	0.449306
0.924771	0.444238
0.924686	0.439598
0.924838	0.433913
0.924961	0.428735
0.925063	0.42372
0.925053	0.418039
0.925151	0.410537
0.925236	0.410021
0.925211	0.405611
0.925201	0.397819
0.925197	0.392587
0.925208	0.389284
0.92544	0.382997
0.925398	0.375833
0.925483	0.371191
0.925528	0.366352
0.925602	0.36062
0.925581	0.355938
0.925602	0.351008
0.925796	0.346487
0.92587	0.34206
0.92586	0.336212
0.925867	0.331789
0.925874	0.326756
0.925814	0.319006
0.925937	0.314132
0.926018	0.309698
0.92612	0.303923
0.926078	0.299277
0.92618	0.292157
0.92629	0.287712
0.926343	0.281658
0.92635	0.277689
0.926283	0.271717
0.926434	0.266535
0.926427	0.261882
0.926448	0.257676
0.926494	0.253725
0.926554	0.249306
0.926691	0.244464
0.926755	0.240108
0.926864	0.237723
0.926854	0.233375
0.926839	0.229146
0.926942	0.22536
0.927111	0.221027
0.927111	0.217096
0.927114	0.211748
0.927002	0.209026
0.927153	0.204143
0.92721	0.199872
0.927259	0.195909
0.92741	0.192658
0.927262	0.188528
0.927509	0.184838
0.927506	0.181065
0.927537	0.178605
0.927671	0.175234
0.927699	0.171451
0.927587	0.167085
0.927703	0.164315
0.927756	0.160302
0.927752	0.157257
0.927869	0.154621
0.927904	0.150914
0.928006	0.148742
0.928024	0.144653
0.928122	0.142811
0.928108	0.1399
0.928122	0.137019
0.928122	0.134003
0.928115	0.131224
0.928344	0.128653
0.92839	0.125462
0.928387	0.122876
0.928394	0.120448
0.928383	0.117706
0.92844	0.11547
0.928549	0.113311
0.928566	0.111057
0.928644	0.10906
0.928781	0.106719
0.928803	0.104508
0.928803	0.101947
0.928827	0.0995879
0.928795	0.0980652
0.928996	0.0960229
0.928933	0.0947146
0.928954	0.0931698
0.928986	0.0909472
0.928958	0.0892503
0.929158	0.087424
0.929183	0.0852003
0.92924	0.0834251
0.929261	0.0820565
0.929335	0.0801623
0.929388	0.0782762
0.929264	0.0765649
0.929381	0.0747621
0.929373	0.0729063
0.929384	0.0713183
0.929338	0.0694713
0.929381	0.0678576
0.929412	0.066265
0.929448	0.0646757
0.929476	0.0631391
0.929574	0.0618786
0.929588	0.0603079
0.929652	0.0584852
0.929673	0.0573739
0.929719	0.0562454
0.929705	0.0547999
0.929779	0.0537948
0.929846	0.0526196
0.929779	0.0516042
0.929793	0.0505451
0.929892	0.0494158
0.93004	0.0484119
0.929997	0.0474045
0.929786	0.046404
0.930047	0.0450004
0.930061	0.0446253
0.93005	0.0439099
0.930022	0.0427765
0.930096	0.0419299
0.93005	0.0408986
0.930092	0.0398782
0.930202	0.0391179
0.930163	0.0382597
0.930209	0.0374973
0.930205	0.0365745
0.930184	0.0358986
0.930297	0.0352542
0.930399	0.0345588
0.930339	0.0338416
0.930473	0.0331554
0.930378	0.032401
0.930438	0.0318357
0.930526	0.0311879
0.930452	0.0305964
0.930473	0.0299855
0.930466	0.0294398
0.930462	0.0288635
0.930473	0.0282528
0.930614	0.0276908
0.930611	0.0271239
0.930611	0.0265713
0.930526	0.0259349
0.930565	0.0254515
0.930625	0.0248843
0.930649	0.0245104
0.93078	0.0239037
0.930737	0.0233884
0.930892	0.0229886
0.93084	0.0225124
0.930868	0.0221905
0.930878	0.0216798
0.930924	0.0213093
0.9309	0.0208907
0.931012	0.0204873
0.931009	0.0201625
0.931023	0.0197372
0.931037	0.0194209
0.931005	0.0190601
0.931069	0.0186498
0.93103	0.0182086
0.931037	0.0180009
0.931291	0.0176471
0.931041	0.0173846
0.931104	0.0170542
0.931097	0.0167489
0.931291	0.0163294
0.931284	0.016108
0.931139	0.0157413
0.931287	0.0154337
0.931287	0.0151585
0.931308	0.0148527
0.931337	0.0146144
0.931312	0.0144272
0.931396	0.0141055
0.931432	0.0138019
0.931439	0.0136049
0.931407	0.0133221
0.931435	0.013072
0.931545	0.0128922
0.931615	0.0127128
0.931647	0.0125124
0.931647	0.0123286
0.931707	0.0120561
0.931707	0.0118287
0.9317	0.0116276
0.9317	0.0114684
0.931703	0.011216
0.931714	0.0110158
0.931855	0.0108291
0.931848	0.0107158
0.931833	0.0105686
0.931805	0.0103551
0.931851	0.0101377
0.932024	0.00996307
0.931989	0.00981073
0.9319	0.00967626
0.932048	0.00950895
0.932144	0.00935661
0.932137	0.00911671
0.932214	0.00901218
0.932228	0.00887056
0.932242	0.00875239
0.932232	0.00857124
0.932447	0.00845866
0.932267	0.00833915
0.932281	0.00825382
0.932507	0.0081609
0.932355	0.00803983
0.932521	0.00793127
0.932542	0.00780351
0.932524	0.00768288
0.932598	0.00756651
0.932644	0.00743941
0.932736	0.00734358
0.932637	0.00722207
0.932729	0.00716868
0.932686	0.007036
0.9327	0.00697502
0.932792	0.00684256
0.932954	0.00674227
0.932697	0.00665716
0.932718	0.00657407
0.93294	0.00645032
0.932947	0.00634399
0.932708	0.00628011
0.932947	0.00617847
0.932789	0.0060956
0.932947	0.00601698
0.932989	0.00591713
0.932965	0.00581371
0.933064	0.00574402
0.933018	0.0056703
0.933102	0.00557626
0.933078	0.00551439
0.933152	0.00544805
0.933208	0.00535669
0.933236	0.0052689
0.933314	0.00522356
0.933335	0.00516526
0.933437	0.00504687
0.933419	0.00499684
0.933381	0.00493854
0.933356	0.00489766
0.933367	0.00482797
0.933511	0.00474711
0.933508	0.00470176
0.933511	0.00464078
0.933511	0.00457511
0.933525	0.00450207
0.933518	0.00445159
0.933515	0.00438122
0.933504	0.0043734
0.933536	0.00429857
0.933511	0.00427534
0.933539	0.00420364
0.933684	0.0041268
0.933634	0.00411563
0.933673	0.00403477
0.933751	0.0039787
0.933634	0.00393782
0.933694	0.00389047
0.933737	0.00385764
0.933786	0.00379598
0.933825	0.00379576
0.933804	0.0037665
0.933888	0.00369122
0.933881	0.00363895
0.933878	0.00362265
0.933895	0.00357395
0.93392	0.00357172
0.933927	0.00354156
0.933941	0.0034779
0.933934	0.0034024
0.933923	0.00336577
0.933997	0.00331774
0.934015	0.00330859
0.933927	0.00327642
0.934033	0.00326436
0.933927	0.00324001
0.933934	0.00322125
0.93417	0.00318953
0.933948	0.00311693
0.933973	0.00310666
0.934061	0.00311046
0.934019	0.00309147
0.934064	0.00306154
0.934131	0.003043
0.934202	0.00297755
0.934195	0.00294561
0.9341	0.00291165
0.934195	0.00291947
0.934205	0.00291255
0.934205	0.00286274
0.934149	0.00286698
0.934272	0.00284152
0.934181	0.0028127
0.93435	0.00274457
0.934265	0.00275529
0.934209	0.00271084
0.934283	0.00271978
0.934262	0.00269208
0.934304	0.00264763
0.934343	0.00264562
0.934322	0.00263691
0.934339	0.00259022
0.934442	0.00258598
0.934346	0.00256364
0.934375	0.00254912
0.934434	0.00253527
0.934551	0.0024906
0.934597	0.00248211
0.93454	0.00247787
0.93454	0.0024562
0.934583	0.00244213
0.934572	0.00242381
0.934604	0.00240907
0.9346	0.00239164
0.9346	0.00237891
0.934653	0.00233535
0.93459	0.00233178
0.9346	0.00231413
0.934607	0.00230296
0.934621	0.00229582
0.934716	0.00226142
0.934635	0.00226723
0.934748	0.00223461
0.934604	0.00225315
0.934649	0.00222858
0.934646	0.00221049
0.934755	0.00218525
0.934702	0.00218033
0.934716	0.00215554
0.93478	0.00214214
0.934745	0.00213923
0.934875	0.00213611
0.93485	0.00212896
0.934935	0.00209813
0.934872	0.00208585
0.935065	0.00210081
0.934998	0.00207781
0.935076	0.0020749
0.935118	0.00205726
0.93509	0.00206195
0.935122	0.00204586
0.935139	0.00203738
0.935164	0.00203179
0.935171	0.00200879
0.935309	0.00201616
0.935284	0.00195897
0.935157	0.00194736
0.935407	0.00195138
0.935425	0.00196277
0.935439	0.00193641
0.935414	0.00193194
0.935421	0.00192122
0.93534	0.00191519
0.935407	0.00190045
0.935421	0.00190246
0.935425	0.00188169
0.935428	0.00189218
0.935421	0.0018732
0.935464	0.00187454
0.935481	0.00186382
0.93545	0.00185198
0.935474	0.00185265
0.935555	0.00184059
0.935583	0.00181199
0.93564	0.00180038
0.93565	0.00180418
0.935788	0.00179211
0.93583	0.00179189
0.935834	0.00177491
0.93576	0.0017901
0.935869	0.00178698
0.935834	0.00176397
0.935837	0.0017557
0.93583	0.00175503
0.935844	0.00177179
0.935837	0.00174342
0.93583	0.00172957
0.935844	0.00172399
0.935978	0.00171639
0.935996	0.001705
0.935992	0.00171081
0.935918	0.00171795
0.935932	0.00170634
0.936246	0.00170209
0.935901	0.00169852
0.935936	0.00167775
0.935936	0.00168579
0.935975	0.00167596
0.935985	0.00167663
0.935975	0.00166635
0.936147	0.00165898
0.93614	0.00166658
0.936197	0.0016706
0.936176	0.00166658
0.93626	0.00164558
0.936257	0.00163888
0.936253	0.00163486
0.936253	0.0016458
0.936348	0.00163486
0.936313	0.00162928
0.936246	0.00163531
0.936235	0.00161721
0.93625	0.00163285
0.93625	0.0016161
0.936246	0.00161051
0.936242	0.00158885
0.936246	0.0015884
0.936235	0.00158684
0.936302	0.00157254
0.936246	0.00158773
0.936401	0.00156494
0.936278	0.00157008
0.936394	0.00156539
0.936408	0.00156249
0.936415	0.00155333
0.936405	0.00155467
0.936391	0.00155713
0.936387	0.00156025
0.936366	0.00155489
0.936369	0.00154819
0.936391	0.00155623
0.936369	0.00155713
0.936408	0.00155512
0.936472	0.00153233
0.936433	0.00153144
0.936528	0.00154774
0.936422	0.00153903
0.936454	0.00153546
0.936493	0.00152429
0.936598	0.00153099
0.936521	0.00151022
0.936546	0.00151446
0.936567	0.00152072
0.936531	0.00149615
0.93662	0.00150061
0.936683	0.00149793
0.936613	0.00149481
0.936736	0.00149213
0.936676	0.00150441
0.936711	0.00147537
0.936704	0.00147493
0.936764	0.00148475
0.936665	0.0014823
0.936694	0.00148029
0.936775	0.00147671
0.936743	0.00147694
0.936792	0.00147381
0.936785	0.00146912
0.936813	0.00146197
0.936803	0.00146353
0.936782	0.00145214
0.93682	0.00146242
0.936803	0.00144633
0.937018	0.00146376
0.936842	0.00145482
0.936739	0.00143516
0.93682	0.00145773
0.936817	0.00144745
0.936835	0.00143405
0.936754	0.00143941
0.936817	0.00144276
0.93682	0.00143963
0.937007	0.00145527
0.936887	0.0014479
0.937011	0.00143516
0.936817	0.0014403
0.936824	0.00144812
0.936976	0.00144499
0.936838	0.00143427
0.936824	0.00144589
0.936817	0.00143338
0.936828	0.00144745
0.936976	0.00144633
0.93682	0.00143651
0.937007	0.00143003
0.936937	0.00142869
0.937078	0.00142645
0.937074	0.00142333
0.937078	0.00141037
0.936997	0.00142601
0.936909	0.00143673
0.93705	0.00141796
0.937092	0.00141953
0.93711	0.00141506
0.937106	0.00141864
0.937106	0.00141998
0.93712	0.00139987
0.937092	0.00140546
0.93718	0.00143338
0.937173	0.00140367
0.937208	0.00140881
0.937243	0.00141796
0.937314	0.00140523
0.937194	0.00140188
0.937339	0.00140814
0.937296	0.00140702
0.937427	0.00141484
0.937236	0.00140858
0.937494	0.00138669
0.937497	0.00140322
0.937568	0.00140858
0.937497	0.001403
0.937487	0.00140121
0.937645	0.00139831
0.93748	0.0013887
0.93749	0.00139138
0.937497	0.00139027
0.937645	0.00139875
0.937494	0.00139183
0.937529	0.0013791
0.937487	0.00137709
0.937554	0.00138602
0.937631	0.00138893
0.937578	0.00139406
0.937628	0.0013925
0.937698	0.00139674
0.937649	0.00138379
0.937881	0.00137061
0.937786	0.00136704
0.937772	0.00137151
0.937913	0.00138334
0.937902	0.00137396
0.937976	0.00136949
0.937899	0.00136949
0.937917	0.00137352
0.938005	0.00137709
0.93798	0.00137865
0.937976	0.00137597
0.938005	0.0013657
0.938033	0.00136659
0.937994	0.00136346
0.938047	0.00136949
0.938065	0.00135341
0.937913	0.00136257
0.938128	0.00135408
0.938068	0.00137307
0.938068	0.00136302
0.938202	0.00136145
0.938072	0.00136436
0.938079	0.00137061
0.938332	0.00137352
0.938301	0.00136704
0.938072	0.00135498
0.938368	0.00135632
0.938237	0.0013514
0.938188	0.00135855
0.938265	0.001359
0.938315	0.00135877
0.938273	0.00136413
0.93835	0.00135833
0.938325	0.00135006
0.938466	0.00133755
0.938417	0.00134314
0.938385	0.00135587
0.938347	0.00135408
0.938438	0.00134202
0.938392	0.0013552
0.938378	0.00135408
0.938406	0.00134314
0.938491	0.00134425
0.938449	0.00134984
0.938414	0.00135676
0.938449	0.00134671
0.938488	0.00133174
0.938442	0.00134135
0.938484	0.00134358
0.938509	0.00134693
0.938473	0.00134403
0.93859	0.00134604
0.938526	0.00133599
0.938576	0.00132929
0.938593	0.00133308
0.93859	0.00132705
0.938611	0.00134381
0.938731	0.00133576
0.938688	0.00133912
0.938745	0.00134113
0.93848	0.00133688
0.938738	0.00134068
0.938724	0.00133599
0.938741	0.00133822
0.938762	0.00133398
0.938755	0.00133465
0.938741	0.00133599
0.938611	0.00133845
0.938748	0.00132661
0.938692	0.00132482
0.938745	0.00133063
0.938495	0.00131477
0.938713	0.00133241
0.93878	0.00132616
0.938741	0.00132303
0.938734	0.00132393
0.938759	0.00133375
0.93878	0.00132192
0.938738	0.00132571
0.938808	0.00132281
0.938755	0.00132035
0.938664	0.00131454
0.938748	0.00132259
0.938836	0.00132705
0.938727	0.00132192
0.938829	0.00132482
0.938738	0.00132169
0.938734	0.00131678
0.938748	0.00131991
0.938731	0.00131834
0.938738	0.00130382
0.938801	0.00130829
0.938907	0.00129801
0.938755	0.00131253
0.938822	0.00131432
0.938865	0.00131186
0.93884	0.00130918
0.938843	0.00130002
0.938833	0.00131119
0.938893	0.00131142
0.938889	0.00130762
0.938851	0.00130583
0.938822	0.00131343
0.938896	0.001296
0.938861	0.0012931
0.938882	0.00129466
0.938914	0.00130539
0.93897	0.00130985
0.938907	0.00130405
0.939044	0.00130606
0.939051	0.00131008
0.93903	0.00129846
0.939143	0.00130807
0.938907	0.00129198
0.939037	0.00129578
0.939041	0.00130807
0.93915	0.00129958
0.939129	0.00130717
0.939129	0.00130226
0.939136	0.00129243
0.939136	0.00130516
0.939125	0.00130159
0.939182	0.00128305
0.939164	0.00129265
0.939192	0.00129935
0.939235	0.00128774
0.939203	0.0012998
0.939288	0.00129489
0.939281	0.00128595
0.939228	0.00128752
0.939309	0.00128863
0.939316	0.0012998
0.939305	0.0012893
0.939302	0.00128908
0.939309	0.00129087
0.939305	0.00129801
0.939566	0.00129891
0.939312	0.00130539
0.939333	0.00130449
0.939372	0.0012969
0.939573	0.00130136
0.93951	0.00129779
0.939566	0.00129913
0.939566	0.00130047
0.939559	0.00130181
0.93958	0.0012969
0.939587	0.00130382
0.939612	0.00129466
0.939619	0.00128662
0.939725	0.00129958
0.939689	0.00130204
0.939714	0.00129556
0.939732	0.00129332
0.93971	0.00129332
0.939813	0.00128215
0.939735	0.00129913
0.939742	0.00130092
0.939739	0.00130002
0.939932	0.00129243
0.939742	0.00128685
0.939936	0.00129645
0.939735	0.00129891
0.93976	0.00128595
0.939996	0.00129712
0.939989	0.00130047
0.93976	0.00130025
0.93982	0.00129556
0.939999	0.00128796
0.939904	0.00129779
0.939883	0.00128774
0.939954	0.00130114
0.940024	0.00130248
0.94001	0.00130382
0.94001	0.00130494
0.939989	0.00130583
0.939999	0.00130025
0.940021	0.00130025
0.940049	0.00128975
0.940024	0.00129824
0.940109	0.00130762
0.940091	0.00129757
0.940105	0.00130561
0.940137	0.00130002
0.940176	0.00130807
0.940218	0.00130606
0.940165	0.00130114
0.940303	0.00130717
0.940147	0.00130896
0.940359	0.00131119
0.940447	0.00130695
0.940408	0.00130762
0.940415	0.00131209
0.940472	0.00129355
0.940412	0.00131142
0.940405	0.00130583
0.940398	0.00130985
0.940401	0.00129891
0.940444	0.00131097
0.940401	0.00131164
0.940412	0.00131432
0.94019	0.00129801
0.940405	0.0013103
0.940405	0.00130136
0.940507	0.00131454
0.940408	0.0012998
0.940401	0.00130293
0.940412	0.00131231
0.940412	0.00130807
0.940408	0.00131611
0.940405	0.00131432
0.940419	0.00132013
0.940567	0.00130204
0.940401	0.00130472
0.940556	0.00130695
0.940563	0.00131566
0.940482	0.00131298
0.940496	0.00131767
0.940489	0.0013208
0.940454	0.00132214
0.940553	0.00132437
0.940496	0.00131588
0.9405	0.00131901
0.940518	0.0013208
0.940489	0.00132415
0.940496	0.0013304
0.940567	0.00132437
0.940542	0.00132192
0.940546	0.00132906
0.940556	0.00131767
0.940588	0.00133264
0.940549	0.00133197
0.940595	0.0013237
0.940567	0.00133018
0.940644	0.00133375
0.940613	0.00134023
0.940592	0.00134001
0.940539	0.00133778
0.940659	0.00134314
0.940666	0.00134582
0.94068	0.00135118
0.94069	0.00134738
0.940666	0.00134492
0.940694	0.00134649
0.940743	0.00134738
0.940792	0.0013514
0.940821	0.00134872
0.940807	0.00135654
0.940778	0.00134224
0.940673	0.00134649
0.940807	0.00135095
0.940817	0.00135162
0.940821	0.00134827
0.940852	0.00135967
0.940856	0.0013514
0.940838	0.00134626
0.940909	0.00135207
0.940905	0.00135609
0.940909	0.00136659
0.940912	0.00136637
0.940828	0.00136949
0.940933	0.00136168
0.940951	0.00135587
0.940969	0.00137508
0.940972	0.00138022
0.940958	0.0013657
0.940962	0.0013791
0.940976	0.00138357
0.940958	0.00138781
0.940976	0.00138915
0.941134	0.00138736
0.941138	0.0013954
0.940969	0.00138491
0.941124	0.00139652
0.941152	0.001403
0.940962	0.00140099
0.940972	0.00139384
0.940972	0.00140546
0.940965	0.00140836
0.940962	0.0014068
0.940997	0.00140992
0.941025	0.00140657
0.941092	0.00141998
0.941198	0.00142243
0.941226	0.00142534
0.941219	0.00142936
0.941226	0.00142132
0.941296	0.00142042
0.941251	0.00142891
0.941286	0.00143315
0.941353	0.00144075
0.941363	0.00144075
0.941381	0.00144633
0.941381	0.00143986
0.941494	0.00143315
0.941508	0.00145326
0.941504	0.00145482
0.941582	0.00144499
0.941645	0.00145639
0.941406	0.00146063
0.941649	0.00144968
0.941596	0.00145572
0.941624	0.00147269
0.941649	0.00147939
0.941631	0.00147113
0.941638	0.00147426
0.941638	0.0014814
0.941635	0.00148878
0.941818	0.00148632
0.941811	0.00149481
0.941818	0.00149347
0.94173	0.00150218
0.941705	0.00150151
0.941709	0.0015062
0.941719	0.00151245
0.941769	0.00151714
0.941874	0.00151625
0.9418	0.00152049
0.941889	0.0015091
0.941927	0.00152965
0.942005	0.00152585
0.942068	0.0015368
0.942068	0.00154283
0.942086	0.00153702
0.942114	0.0015569
0.942139	0.0015674
0.942185	0.00156539
0.942174	0.00155445
0.942104	0.00157031
0.942209	0.00157589
0.942188	0.00156695
0.942213	0.00158393
0.942259	0.00158594
0.942213	0.00159376
0.942223	0.00159465
0.942206	0.0016056
0.942223	0.00160336
0.942459	0.00161141
0.942213	0.00160471
0.942213	0.0016266
0.942442	0.00162459
0.942241	0.00161476
0.942484	0.00163888
0.942481	0.00162727
0.942474	0.0016324
0.942467	0.00165005
0.942481	0.00164268
0.942431	0.00166166
0.94241	0.00166591
0.942484	0.00166099
0.942459	0.00168288
0.942523	0.00169204
0.942526	0.00168869
0.942481	0.00169093
0.942523	0.00168825
0.942484	0.00170947
0.942558	0.00170589
0.942562	0.00171996
0.942534	0.00172332
0.942551	0.00173046
0.942618	0.00172622
0.942579	0.00173962
0.942534	0.00174208
0.94259	0.00173337
0.942583	0.00174655
0.942604	0.00176598
0.942583	0.00176263
0.942604	0.00178184
0.942608	0.00178072
0.942618	0.0017977
0.942615	0.00179234
0.942731	0.00181177
0.942646	0.00182071
0.942646	0.00182852
0.942692	0.00182741
0.942763	0.00185019
0.942812	0.00185645
0.942622	0.00185511
0.942858	0.0018665
0.942812	0.00188883
0.942854	0.00188794
0.942875	0.00190425
0.942886	0.00191184
0.942886	0.00190447
0.942893	0.00193462
0.942932	0.00194133
0.942925	0.00193932
0.942886	0.00195853
0.942879	0.00196567
0.942879	0.00197126
0.942897	0.00197528
0.942886	0.0019936
0.942868	0.00200879
0.942882	0.00198868
0.942886	0.0020204
0.942879	0.00203469
0.942893	0.00204475
0.943013	0.00205636
0.942889	0.00206329
0.942879	0.00207647
0.942893	0.00208138
0.943013	0.00208518
0.942925	0.0021064
0.942886	0.00211623
0.942992	0.0021026
0.942935	0.00210953
0.943002	0.00212829
0.94296	0.00215152
0.943016	0.00215978
0.943037	0.00217274
0.943034	0.00219999
0.943023	0.00219418
0.943037	0.00221987
0.943027	0.00222881
0.943115	0.00224333
0.943073	0.00225204
0.943186	0.00227906
0.943055	0.00227058
0.943119	0.00227482
0.943207	0.00231346
0.9432	0.00230364
0.943203	0.00232061
0.943284	0.00233133
0.943238	0.00234407
0.943281	0.00235769
0.943369	0.00239388
0.943316	0.00239812
0.943288	0.00242314
0.943277	0.0024419
0.943284	0.00243207
0.943281	0.00243029
0.943291	0.00244838
0.943295	0.00247184
0.943341	0.00249998
0.943432	0.00252276
0.94339	0.00252299
0.943432	0.00253907
0.943386	0.00253728
0.943383	0.00255649
0.943429	0.00257034
0.943524	0.00258508
0.94363	0.00263467
0.943668	0.00266527
0.943601	0.00267689
0.943668	0.00269163
0.943704	0.00266952
0.943718	0.00268158
0.943732	0.00274368
0.943725	0.00273273
0.943788	0.0027515
0.943845	0.00275395
0.943809	0.00280332
0.943859	0.00285358
0.943855	0.00286542
0.943799	0.00284665
0.943841	0.0028681
0.943838	0.00288842
0.943838	0.00294605
0.943781	0.00295767
0.943834	0.00297844
0.943852	0.002957
0.943845	0.00300793
0.94388	0.00301374
0.943915	0.0030115
0.943904	0.00306667
0.943964	0.00308901
0.944116	0.00310197
0.944081	0.00310174
0.944102	0.00315133
0.944102	0.00316317
0.944112	0.00318864
0.944148	0.00317925
0.944193	0.00323063
0.944222	0.00324671
0.94425	0.00317568
0.94426	0.00322147
0.944401	0.00335147
0.944296	0.00338587
0.944493	0.00338632
0.944507	0.00338074
0.944535	0.00341781
0.944334	0.00345556
0.944539	0.00348103
0.944539	0.003454
0.944528	0.00350158
0.944528	0.00352057
0.944535	0.00356904
0.944535	0.00360612
0.944553	0.00364007
0.944535	0.00368541
0.944574	0.00366308
0.944528	0.00372942
0.944542	0.00366062
0.944609	0.00370529
0.944602	0.0038038
0.944655	0.00383329
0.944595	0.00383485
0.944606	0.00387081
0.944588	0.00381497
0.944602	0.00385294
0.944655	0.00393805
0.944595	0.00394788
0.944609	0.00396284
0.944638	0.00399278
0.944729	0.00402985
0.94468	0.00406001
0.944764	0.00411094
0.944824	0.00411139
0.944757	0.00416053
0.94474	0.00423446
0.944796	0.00428964
0.944743	0.00434213
0.944736	0.00437206
0.94475	0.00435353
0.944715	0.00443305
0.944863	0.00444421
0.944948	0.0045492
0.944846	0.00457154
0.944793	0.00459991
0.94487	0.00462559
0.944923	0.00463743
0.944863	0.00469216
0.944997	0.00462112
0.944923	0.00473348
0.944923	0.00478776
0.944923	0.00482305
0.944927	0.00483601
0.944983	0.00488761
0.944955	0.00482015
0.944934	0.00499259
0.945022	0.00501001
0.944927	0.00496489
0.945029	0.00505983
0.945029	0.00515476
0.945036	0.0051934
0.94499	0.00518782
0.945068	0.00527873
0.945092	0.00530129
0.944962	0.00529615
0.945082	0.00532653
0.944937	0.00530621
0.945096	0.00532944
0.945089	0.00537076
0.945082	0.00541745
0.945068	0.00561937
0.94518	0.00555594
0.945082	0.0055919
0.945103	0.0055948
0.945085	0.00568214
0.945096	0.00569934
0.945092	0.00569242
0.945068	0.00579204
0.945096	0.00593411
0.945085	0.00586866
0.945357	0.00590998
0.945177	0.00599419
0.945212	0.00612889
0.945092	0.00618249
0.945191	0.00629061
0.945191	0.0062743
0.945145	0.00635985
0.945283	0.00641614
0.945173	0.00645322
0.945247	0.00653274
0.945318	0.00652649
0.945357	0.00655396
0.94536	0.00663639
0.945374	0.00668173
0.94536	0.00676617
0.94536	0.00678672
0.945367	0.00688366
0.945402	0.00687584
0.945448	0.00692945
0.945505	0.0068477
0.945459	0.00692476
0.945505	0.00695134
0.945501	0.00693302
0.945512	0.00699021
0.945508	0.00720599
0.945635	0.00732594
0.94567	0.00715349
0.945624	0.00731052
0.945688	0.00750776
0.945765	0.00754372
0.945751	0.00757276
0.945512	0.00763665
0.945822	0.00773158
0.945765	0.00783366
0.945758	0.00782227
0.945631	0.00780194
0.945751	0.00795585
0.945748	0.00789643
0.945758	0.00802866
0.945755	0.00810997
0.945765	0.008137
0.945896	0.00832977
0.945885	0.0084763
0.945892	0.00843252
0.945885	0.00861926
0.945832	0.00859782
0.945889	0.0086407
0.945889	0.00885648
0.945899	0.00882722
0.945938	0.00888999
0.946012	0.00909192
0.94615	0.0091739
0.94604	0.00926503
0.946164	0.0093001
0.94615	0.00935438
0.946216	0.00945892
0.946167	0.00920338
0.946262	0.00939258
0.946262	0.00946763
0.946262	0.00964476
0.946276	0.00968966
0.946287	0.00988266
0.946305	0.00990924
0.946308	0.00986412
0.946294	0.00988132
0.946181	0.0101851
0.946301	0.0102463
0.946305	0.0101549
0.946502	0.0104518
0.946558	0.0102622
0.946305	0.0106497
0.94634	0.0107096
0.94641	0.0109569
0.946343	0.0109783
0.946502	0.0109271
0.946453	0.0111483
0.946527	0.0110078
0.946484	0.0112944
0.946569	0.0115537
0.946565	0.0116133
0.946572	0.0115215
0.946587	0.011738
0.946576	0.0117847
0.946661	0.0118868
0.946724	0.0119279
0.946689	0.0117882
0.946675	0.0122529
0.946696	0.0123476
0.94671	0.0123969
0.94671	0.0124604
0.946728	0.0124179
0.946745	0.0125535
0.946731	0.0127883
0.946731	0.0130351
0.946717	0.0128432
0.946728	0.0129869
0.94672	0.0131312
0.946717	0.013076
0.946724	0.0134559
0.946724	0.0134104
0.946731	0.0136398
0.946724	0.0138484
0.946728	0.013864
0.94671	0.0140653
0.946935	0.014322
0.946735	0.0142675
0.94672	0.0144533
0.94672	0.0143747
0.946816	0.01441
0.946738	0.0148147
0.946967	0.0147995
0.946752	0.0149863
0.946823	0.0152487
0.946879	0.0152965
0.946981	0.0153492
0.94695	0.0153501
0.946985	0.015643
0.946974	0.0152378
0.947017	0.0155201
0.947013	0.0156474
0.946988	0.0157842
0.947027	0.0159352
0.947006	0.0160631
0.947055	0.016417
0.947038	0.0163546
0.947073	0.0166012
0.946988	0.0166859
0.947052	0.0168831
0.947066	0.0168827
0.947059	0.0170031
0.947108	0.0173422
0.947031	0.0172519
0.947122	0.0177561
0.94708	0.0178952
0.947105	0.0178642
0.947136	0.0182701
0.947122	0.0180675
0.947235	0.018159
0.947228	0.0182419
0.947154	0.0188457
0.947175	0.0188562
0.9472	0.0190485
0.947196	0.0192853
0.947193	0.0191064
0.947263	0.019508
0.947327	0.0197345
0.947313	0.0194032
0.947397	0.0196382
0.947337	0.0199894
0.94739	0.019862
0.947408	0.0201343
0.947401	0.0205167
0.947154	0.0206584
0.947446	0.0210968
0.947404	0.0213618
0.94721	0.0214169
0.947383	0.0214837
0.947415	0.0217276
0.947404	0.0216017
0.94739	0.0219376
0.94739	0.0222984
0.947446	0.0221458
0.947394	0.022715
0.947355	0.0228959
0.947408	0.0228016
0.947411	0.0231595
0.947401	0.0234282
0.947415	0.0235515
0.947387	0.0238229
0.947432	0.0236788
0.94739	0.0236618
0.947429	0.0237351
0.947496	0.0240081
0.947432	0.0242207
0.947489	0.0249759
0.947489	0.0252261
0.947439	0.0251524
0.947482	0.0253865
0.947524	0.0256963
0.947559	0.0253979
0.94769	0.026127
0.947573	0.026309
0.947602	0.0258477
0.947753	0.0260508
0.947644	0.0264689
0.947795	0.0265744
0.947718	0.0270604
0.947753	0.0269782
0.947809	0.027259
0.947841	0.0276819
0.947859	0.0276899
0.947919	0.0278849
0.947926	0.0280062
0.947919	0.0286504
0.947936	0.0290096
0.947975	0.0292363
0.947972	0.0289066
0.947961	0.0291179
0.947986	0.0292582
0.947961	0.0303581
0.947958	0.0301564
0.94801	0.0300201
0.947961	0.0308864
0.947954	0.0314001
0.947965	0.031428
0.947961	0.0317948
0.947982	0.0324216
0.948127	0.0325185
0.948218	0.0324053
0.94812	0.0328208
0.948225	0.0331462
0.948211	0.0328652
0.948229	0.0335166
0.948243	0.0337826
0.948282	0.033494
0.948299	0.0340502
0.948264	0.0351179
0.948342	0.035184
0.948366	0.034952
0.948356	0.0346153
0.948426	0.0350134
0.948444	0.0353098
0.948447	0.0355024
0.948479	0.0362071
0.948532	0.0371513
0.948638	0.0375551
0.94862	0.0373119
0.948627	0.037116
0.948631	0.0368042
0.948624	0.0381855
0.948624	0.0391576
0.948521	0.0388744
0.948761	0.0392811
0.948786	0.0397408
0.948634	0.0398452
0.948631	0.0397804
0.948708	0.040134
0.948677	0.0402939
0.948662	0.0400143
0.948772	0.0414336
0.948726	0.0417956
0.948779	0.0422473
0.948715	0.0427532
0.948782	0.042915
0.948909	0.0424868
0.948782	0.0427452
0.948751	0.043273
0.948779	0.0435411
0.948867	0.0434093
0.9488	0.0455233
0.948793	0.0441589
0.948832	0.0441647
0.948775	0.0460639
0.948782	0.0470932
0.948895	0.0470206
0.948867	0.0458684
0.948927	0.0460277
0.948937	0.0480041
0.948997	0.0488057
0.949047	0.0492136
0.948955	0.049422
0.948973	0.0499675
0.949018	0.0505965
0.949015	0.0503186
0.949025	0.0509988
0.949047	0.050827
0.949036	0.0508918
0.94911	0.0509535
0.949082	0.0517391
0.949092	0.0528358
0.949057	0.0531555
0.949054	0.0536632
0.949103	0.0541781
0.949114	0.0540117
0.949135	0.0547915
0.949156	0.0551165
0.94917	0.0553477
0.949173	0.055448
0.94917	0.0553086
0.94917	0.0560709
0.949177	0.0574445
0.949173	0.0573506
0.949145	0.0569104
0.94917	0.0577965
0.949159	0.0585155
0.949166	0.0598055
0.94918	0.0590478
0.94918	0.0606843
0.949166	0.0600184
0.949166	0.0616119
0.949166	0.0610481
0.949163	0.0627187
0.94917	0.0634782
0.949276	0.0623942
0.949159	0.0636529
0.949156	0.0647327
0.949188	0.0644673
0.949209	0.0640152
0.949173	0.0648732
0.94917	0.0664502
0.949163	0.0666244
0.949184	0.0664066
0.949297	0.0688729
0.949251	0.0673399
0.949283	0.0690846
0.949336	0.0696404
0.949212	0.0699942
0.949346	0.0704101
0.949254	0.0707342
0.949424	0.0711249
0.949434	0.0725645
0.949434	0.0716791
0.949441	0.0715111
0.949491	0.0725393
0.949459	0.0730982
0.949469	0.0734402
0.949526	0.0754378
0.949477	0.0757396
0.949547	0.075115
0.949512	0.077483
0.949526	0.0770773
0.949526	0.0779871
0.949575	0.0771687
0.949543	0.0785898
0.949484	0.0783733
0.949526	0.0794395
0.949572	0.080805
0.949589	0.0808025
0.949596	0.0813791
0.949579	0.0824767
0.949589	0.0832371
0.949646	0.0834734
0.94967	0.0839422
0.949607	0.0845322
0.949568	0.0849434
0.949667	0.0860017
0.949762	0.0866661
0.949822	0.0873163
0.949871	0.0871021
0.949847	0.0885167
0.949921	0.0881982
0.949843	0.0878609
0.94985	0.0889563
0.94984	0.0903191
0.949832	0.0895931
0.94984	0.0911541
0.949899	0.0911987
0.949942	0.092446
0.94991	0.0930016
0.950009	0.0928888
0.949977	0.0935336
0.950051	0.0949031
0.950012	0.0965675
0.950072	0.0976942
0.950213	0.0988895
0.950178	0.0986639
0.950139	0.099504
0.95016	0.101097
0.950245	0.100526
0.950238	0.100415
0.950255	0.101133
0.950252	0.101738
0.950248	0.104143
0.950245	0.103134
0.950382	0.105746
0.950245	0.106492
0.950375	0.104524
0.950255	0.106416
0.950379	0.107561
0.950273	0.108239
0.950298	0.108427
0.950322	0.108784
0.950375	0.111352
0.950386	0.113271
0.950403	0.114419
0.9504	0.112899
0.950403	0.114078
0.950407	0.114437
0.950509	0.114083
0.950499	0.114497
0.950594	0.116614
0.950566	0.117211
0.950594	0.117204
0.950661	0.119957
0.950668	0.119297
0.950707	0.12041
0.950696	0.125108
0.950657	0.124573
0.950717	0.126932
0.950773	0.127756
0.950773	0.128845
0.950819	0.129449
0.950823	0.127429
0.950823	0.129263
0.950826	0.129442
0.950819	0.132479
0.950809	0.132635
0.950819	0.133995
0.950823	0.135325
0.950833	0.136615
0.950826	0.137648
0.950788	0.136476
0.95083	0.136121
0.95083	0.136764
0.950823	0.137497
0.950805	0.139748
0.950816	0.139311
0.950826	0.140991
0.950802	0.145539
0.950819	0.142958
0.95107	0.145767
0.950851	0.147613
0.950816	0.148485
0.95083	0.148243
0.950872	0.150222
0.950809	0.15271
0.950826	0.152864
0.950974	0.155556
0.951091	0.155868
0.950957	0.156601
0.950985	0.157051
0.950988	0.155975
0.950936	0.157015
0.95096	0.157428
0.951112	0.158719
0.951115	0.159464
0.95108	0.160433
0.951091	0.164731
0.951144	0.163497
0.951094	0.164529
0.951172	0.164475
0.951115	0.166286
0.951168	0.168704
0.951165	0.168856
0.951144	0.171033
0.951119	0.170313
0.95114	0.172119
0.951161	0.175814
0.951179	0.174279
0.951182	0.175231
0.951207	0.178315
0.951186	0.177753
0.951292	0.179019
0.951295	0.182289
0.951327	0.182854
0.951239	0.186653
0.951242	0.185954
0.951299	0.184805
0.951334	0.186924
0.951351	0.187485
0.951239	0.190423
0.951246	0.192153
0.951415	0.193547
0.951235	0.193115
0.951397	0.193709
0.951246	0.195589
0.951496	0.19823
0.951492	0.198281
0.951447	0.19996
0.951496	0.201328
0.9515	0.205123
0.951246	0.20599
0.951496	0.205951
0.951507	0.208001
0.951507	0.208917
0.951503	0.20992
0.951351	0.210896
0.951609	0.213248
0.951468	0.215069
0.95151	0.216558
0.951609	0.2168
0.9515	0.219511
0.951549	0.220604
0.9515	0.220304
0.95151	0.222016
0.951521	0.223626
0.951492	0.224827
0.951503	0.22595
0.951542	0.226923
0.951637	0.228792
0.951655	0.229914
0.951538	0.229523
0.951598	0.23305
0.951566	0.234201
0.951651	0.232601
0.951665	0.236714
0.951686	0.237419
0.951693	0.237214
0.95182	0.239027
0.951859	0.242525
0.951813	0.245166
0.951908	0.243511
0.951915	0.243749
0.951958	0.246833
0.951982	0.246331
0.951996	0.246201
0.952007	0.249595
0.952035	0.253012
0.95206	0.253351
0.952067	0.257948
0.952028	0.257714
0.952028	0.258308
0.952067	0.259696
0.952063	0.262668
0.952109	0.260373
0.95207	0.266796
0.95207	0.26407
0.95206	0.270323
0.952074	0.269223
0.952078	0.274099
0.952063	0.271415
0.95206	0.277047
0.95218	0.275541
0.952144	0.27688
0.952317	0.279007
0.95224	0.282925
0.952183	0.278741
0.952314	0.27961
0.952307	0.280348
0.952384	0.283106
0.952363	0.289093
0.952345	0.28374
0.952458	0.29365
0.95243	0.293605
0.952441	0.294195
0.952539	0.297114
0.952451	0.295172
0.952483	0.296993
0.95255	0.303458
0.952663	0.297565
0.952564	0.306795
0.95262	0.307412
0.952624	0.306189
0.952701	0.3097
0.952722	0.308609
0.952719	0.316791
0.952715	0.321214
0.952744	0.322957
0.952821	0.317359
0.952733	0.317213
0.952726	0.324667
0.952856	0.327543
0.952726	0.33222
0.952758	0.328575
0.952751	0.332888
0.952888	0.335566
0.952895	0.338388
0.952821	0.342878
0.952832	0.341486
0.952839	0.342239
0.952997	0.344027
0.95286	0.350657
0.952923	0.352313
0.952892	0.352338
0.952888	0.356338
0.952885	0.357813
0.953064	0.358435
0.953146	0.358218
0.952997	0.360073
0.953107	0.364759
0.953043	0.362122
0.953043	0.363143
0.953121	0.369195
0.953124	0.369432
0.953128	0.372554
0.953107	0.375305
0.953184	0.377942
0.953167	0.37901
0.953248	0.382852
0.953131	0.38525
0.953209	0.388763
0.953241	0.391101
0.953146	0.392672
0.953283	0.393843
0.953294	0.390502
0.953315	0.396344
0.953227	0.40236
0.953322	0.405678
0.953308	0.406248
0.953315	0.407846
0.953304	0.407737
0.953301	0.41336
0.953301	0.416727
0.953304	0.420142
0.953304	0.415007
0.953223	0.423213
0.953315	0.421226
0.953308	0.430179
0.953279	0.432371
0.953304	0.432338
0.953311	0.436615
0.95329	0.440336
0.95336	0.439165
0.953339	0.440095
0.953297	0.443045
0.953315	0.441666
0.953315	0.444048
0.953322	0.456447
0.953364	0.453191
0.953304	0.455189
0.953558	0.461701
0.953568	0.463292
0.953498	0.469556
0.953385	0.463095
0.953551	0.469485
0.953343	0.479783
0.953537	0.481224
0.953509	0.484583
0.95353	0.485104
0.953586	0.485287
0.953579	0.489243
0.953572	0.492818
0.953579	0.494961
0.953635	0.497932
0.953646	0.499226
0.953639	0.503852
0.953642	0.505628
0.953667	0.50694
0.953664	0.499914
0.953702	0.505941
0.953657	0.511685
0.953685	0.519904
0.953713	0.524054
0.95372	0.527527
0.953734	0.531771
0.953723	0.53186
0.95372	0.531825
0.953702	0.530231
0.953716	0.531474
0.953709	0.534299
0.95372	0.536634
0.953716	0.547249
0.953713	0.551013
0.953872	0.555114
0.953861	0.555375
0.953815	0.561843
0.953794	0.564784
0.953956	0.562574
0.95396	0.560513
0.953981	0.569528
0.953991	0.577303
0.953977	0.579967
0.954076	0.581033
0.954062	0.580678
0.954118	0.581073
0.954108	0.578222
0.954111	0.580642
0.954206	0.588435
0.954238	0.586946
0.954231	0.600646
0.954273	0.608403
0.954383	0.611719
0.954376	0.601207
0.954379	0.614186
0.954249	0.618173
0.954386	0.620439
0.954386	0.628521
0.954376	0.631593
0.954509	0.635176
0.954379	0.638615
0.954552	0.644587
0.954397	0.647199
0.954478	0.650607
0.954502	0.654679
0.954524	0.654641
0.954545	0.663039
0.954474	0.667015
0.954555	0.673206
0.954573	0.675078
0.954672	0.678569
0.954689	0.683316
0.954746	0.689042
0.954788	0.697132
0.954753	0.701997
0.954851	0.705847
0.954862	0.709823
0.954901	0.711151
0.954872	0.714103
0.954946	0.720695
0.954939	0.724048
0.955197	0.731919
0.954943	0.73589
0.954999	0.738858
0.955091	0.739539
0.955197	0.7436
0.955197	0.748423
0.955207	0.754674
0.955211	0.764247
0.955288	0.762326
0.955309	0.765988
0.955352	0.777663
0.955359	0.776959
0.95556	0.781949
0.955598	0.788287
0.955355	0.803882
0.955567	0.806693
0.955694	0.812318
0.955627	0.817128
0.955553	0.823162
0.955757	0.830423
0.955637	0.835983
0.95563	0.842459
0.955764	0.850938
0.955775	0.85771
0.955775	0.865914
0.955976	0.872109
0.956074	0.879439
0.956109	0.888758
0.956127	0.890378
0.956191	0.898942
0.956191	0.903005
0.956078	0.918421
0.956451	0.92483
0.956342	0.934058
0.956497	0.938985
0.956543	0.945625
0.956663	0.951572
0.956814	0.956665
0.95686	0.960196
0.956881	0.968941
0.956962	0.973077
0.957089	0.97466
0.95728	0.975567
0.957301	0.978191
0.957375	0.980571
0.957505	0.977471
0.957745	0.984716
0.957812	0.982578
0.958087	0.987324
0.9579	0.981583
0.958147	0.984698
0.958221	0.985907
0.958436	0.98631
0.958517	0.986153
0.958686	0.98597
0.958626	0.988886
0.958689	0.994111
0.958936	0.99326
0.959028	0.993618
0.959102	0.991068
0.959098	0.990259
0.95937	0.992514
0.959486	0.994829
0.959683	0.992726
0.959511	0.993043
0.959771	0.994254
0.95987	0.99398
0.95994	0.992411
0.96018	0.993394
0.96017	0.994355
0.960318	0.992321
0.960388	0.993521
0.960476	0.993381
0.960663	0.995312
0.960952	0.993944
0.960772	0.993345
0.960998	0.986973
0.961058	0.993202
0.96123	0.994588
0.961396	0.995385
0.96141	0.998107
0.961516	0.996655
0.961629	0.997567
0.961812	0.986973
0.961956	0.995998
0.961935	1.00043
0.962066	0.999542
0.962235	0.997006
0.962393	0.998836
0.962397	0.998541
0.962397	1.0031
0.962654	1.00052
0.962753	1.00131
0.962901	0.999294
0.963112	1.001
0.963222	0.999991
0.963134	0.997164
0.96338	0.998476
0.963472	0.998311
0.963571	0.995745
0.963729	0.994518
0.963888	0.995633
0.964046	0.997694
0.96399	0.994259
0.964233	0.992893
0.964307	0.991602
0.964314	0.992491
0.964483	0.992641
0.964596	0.992364
0.964741	0.988305
0.96485	0.99202
0.964882	0.992129
0.965139	0.993854
0.965188	0.994681
0.965393	0.993457
0.965534	0.989354
0.965565	0.985152
0.965643	0.985713
0.96583	0.985168
0.966024	0.988252
0.966115	0.986846
0.966136	0.98683
0.966348	0.989604
0.966521	0.990643
0.966633	0.990306
0.966542	0.992263
0.966813	0.988198
0.966961	0.983474
0.967098	0.993776
0.967211	0.990737
0.967366	0.994216
0.967398	0.993591
0.9675	0.993687
0.967701	0.994722
0.967814	0.99315
0.967832	0.993513
0.968078	0.996476
0.968177	0.994073
0.968381	0.99549
0.968501	0.993367
0.968663	0.996728
0.968716	0.996635
0.968885	0.997732
0.969033	0.981114
0.969086	0.996413
0.969121	0.99764
0.969361	0.986283
0.969435	0.992158
0.969633	0.991515
0.969738	0.995564
0.969766	0.99716
0.969967	0.998657
0.970048	1.00276
0.970299	1
0.970471	1.00002
0.970341	1.00709
0.970577	0.999853
0.970711	1.00591
0.970817	1.00659
0.970993	1.00516
0.971014	1.00275
0.97131	0.992093
0.971409	1.00521
0.971557	1.00519
0.971582	1.00258
0.971691	1.00248
0.971846	1.00092
0.971955	0.989588
0.971994	0.989763
0.972251	1.0041
0.972283	1.00397
0.972406	1.00267
0.972403	1.00023
0.972671	1.00144
0.972734	1.00531
0.972864	1.00492
0.973086	1.00187
0.973175	1.00093
0.97321	0.995405
0.973287	0.99745
0.973379	0.996498
0.973615	0.995135
0.973647	0.997267
0.973886	1.00135
0.974006	0.999895
0.974027	1.00061
0.974063	1.00367
0.974288	1.00532
0.974341	0.995589
0.97444	1.00245
0.974454	1.00306
0.974669	1.00327
0.974806	1.00321
0.974842	1.00462
0.974849	1.00614
0.975046	1.00209
0.975176	1.00355
0.975247	1.00579
0.97543	1.00614
0.975557	1.00444
0.975515	1.00171
0.975631	1.00229
0.975842	1.00226
0.975941	1.00469
0.976082	1.00518
0.976065	1.00262
0.976121	1.00415
0.976318	1.00676
0.976452	1.00663
0.976512	1.00296
0.976695	1.00095
0.976752	1.00419
0.976748	1.00406
0.976907	1.00494
0.976942	1.0035
0.97708	1.00441
0.97728	1.00568
0.977365	1.00324
0.977337	1.00205
0.977446	1.00079
0.977555	0.998101
0.977682	0.997949
0.977802	0.998825
0.977858	0.999953
0.977841	0.998525
0.978126	0.997533
0.978126	0.997555
0.978186	0.999833
0.978408	1.00048
0.978422	0.999703
0.978574	0.998798
0.978574	1.00145
0.978584	1.00081
0.978803	1.00164
0.978852	1.00508
0.978958	1.00451
0.978993	1.00244
0.979	1.00591
0.979141	1.0051
0.979247	1.00647
0.97936	1.00327
0.979416	1.00567
0.979645	1.00387
0.979673	1.00296
0.97967	0.99836
0.97967	1.00055
0.979924	1.00182
0.980029	1.00475
0.980128	1.0022
0.980096	0.998217
0.980248	1.00242
0.98023	1.00201
0.980445	1.00206
0.980509	1.0016
0.980593	1.00126
0.980681	0.999665
0.980696	0.99929
0.980942	0.99806
0.980946	0.999035
0.981111	0.996355
0.981143	0.995915
0.981171	0.995897
0.981411	0.98879
0.981467	0.993834
0.981478	0.992585
0.981767	0.997906
0.981788	0.995953
0.981866	0.994713
0.981936	0.996713
0.981933	0.993086
0.981982	0.993374
0.982186	0.990824
0.982264	0.99438
0.982331	0.992797
0.982521	0.993461
0.982489	0.99419
0.98263	0.991725
0.982666	0.990947
0.98287	0.993354
0.982944	0.994268
0.983138	0.994491
0.98318	0.99313
0.983184	0.993081
0.983268	0.992462
0.983438	0.995124
0.983526	0.992545
0.983593	0.992856
0.983843	0.992634
0.98385	0.993314
0.983864	0.993171
0.983952	0.991812
0.984019	0.987434
0.984262	0.991186
0.984343	0.992388
0.984428	0.991434
0.984445	0.991781
0.984417	0.996878
0.984675	0.993977
0.98472	0.995086
0.984798	0.993437
0.984981	0.994136
0.985094	0.995291
0.984995	0.996007
0.985253	0.994742
0.985246	0.998414
0.985376	0.997922
0.985503	1.00106
0.985499	1.00295
0.985527	1.00274
0.98563	1.00506
0.985915	1.00354
0.985922	1.00536
0.98606	1.00521
0.986077	1.00789
0.986084	1.00835
0.986155	1.0078
0.986313	1.00556
0.986409	1.00525
0.986511	1.00373
0.986617	1.00685
0.986493	1.00688
0.986757	1.00764
0.986789	1.00076
0.986842	1.00669
0.986994	1.00685
0.987173	1.00415
0.987177	1.00486
0.987329	1.00519
0.987318	1.00468
0.987392	1.00506
0.987498	1.00807
0.987589	1.00472
0.987674	1.0056
0.987741	1.00599
0.98784	1.00502
0.987984	1.00344
0.988143	1.00387
0.988009	0.998405
0.9881	1.00624
0.988129	1.00871
0.98821	1.0049
0.988393	1.00702
0.988506	1.00429
0.988551	1.00452
0.988562	1.00645
0.988611	1.00938
0.988717	1.0015
0.988774	0.998798
0.98884	1.00584
0.98895	1.0075
0.988967	1.00811
0.988974	1.00822
0.988967	1.00842
0.989031	1.00802
0.989158	1.00335
0.989242	1.00548
0.989352	1.00431
0.98933	1.00249
0.989387	0.993852
0.989478	1.00431
0.989411	1.00411
0.9895	1.00487
0.989644	1.00327
0.989584	1.00401
0.989711	1.00439
0.989722	1.00595
0.989806	1.00594
0.989877	1.00593
0.990025	0.994404
0.990067	1.00538
0.990127	1.00621
0.990187	1.00344
0.990085	1.00373
0.990219	1.00508
0.990134	1.00515
0.990254	1.00798
0.990201	1.00609
0.990254	1.00565
0.990342	1.00561
0.990493	1.00236
0.99061	1.0053
0.990641	1.00657
0.990627	1.00492
0.990726	1.00733
0.990631	1.0076
0.990811	1.00626
0.990888	1.00569
0.990885	1.00642
0.990923	1.006
0.990969	0.998121
0.991142	1.00638
0.991082	1.00568
0.991075	0.99861
0.99123	0.996532
0.991269	1.00257
0.991343	1.00271
0.991308	1.00453
0.991297	1.00258
0.991456	1.00673
0.991452	1.00719
0.991382	1.00114
0.99142	1.002
0.991533	1.00562
0.991614	1.00165
0.99166	1.00234
0.991709	1.00107
0.991748	0.99792
0.991787	0.993309
0.991829	0.995966
0.991879	0.997368
0.991882	0.997506
0.992093	1.00035
0.992143	0.999285
0.992143	0.996051
0.992146	0.997607
0.992146	0.993408
0.992175	0.994775
0.992249	0.995727
0.992316	0.998051
0.992418	0.998116
0.992471	0.999486
0.992559	1.00139
0.992559	0.99642
0.992548	1.00224
0.992576	1.00245
0.99264	1.0019
0.992679	0.995236
0.992724	0.996022
0.992795	0.996789
0.992929	0.996451
0.992869	0.999218
0.993024	1.00021
0.993017	0.997267
0.992985	0.997046
0.99313	0.995734
0.993091	0.997967
0.99314	0.996159
0.993126	0.995881
0.993144	0.995144
0.993309	0.996143
0.993387	0.997853
0.99339	0.99844
0.993415	1.0003
0.99345	0.996956
0.993535	1.00079
0.993531	1.00057
0.993588	0.998724
0.99381	0.997944
0.993817	0.998416
0.99381	1.00311
0.993789	0.999607
0.993827	1.00049
0.993926	1.00239
0.993926	1.00135
0.99393	0.999667
0.994004	0.998181
0.994078	0.994657
0.994205	1.00287
0.994212	1.00316
0.994229	1.00535
0.994212	1.00013
0.99436	1.0018
0.994236	1.00612
0.994356	1.00773
0.99437	1.0048
0.99437	1.00521
0.994398	1.00413
0.994416	1.00245
0.994508	1.00331
0.994557	1.00323
0.994603	1.00295
0.994772	1.00405
0.994779	1.00541
0.994758	1.00488
0.994719	1.0047
0.994835	1.00439
0.994892	1.00838
0.994931	1.00827
0.994765	1.00181
0.99504	1.00321
0.99504	1.00153
0.995022	0.999073
0.995043	1.00012
0.99504	1.00167
0.99504	1.00629
0.99505	1.00662
0.995082	1.00499
0.995177	1.00087
0.995206	1.00633
0.995167	1.00659
0.995325	1.00594
0.995304	1.01016
0.995255	1.01162
0.995403	1.01115
0.995456	1.01227
0.995449	1.00599
0.995463	1.00858
0.995533	1.00733
0.995445	1.00425
0.995435	1.01146
0.995583	1.0117
0.995554	1.00827
0.995597	1.00879
0.995449	1.00989
0.995597	1.01343
0.995579	1.01224
0.995502	1.01225
0.995537	1.00417
0.995565	1.01331
0.995597	1.01324
0.995523	1.00958
0.995583	1.01022
0.995579	1.01043
0.995607	1.0114
0.995597	1.0097
0.995597	1.00994
0.995628	1.00904
0.995734	1.01245
0.995791	1.00933
0.995843	1.00876
0.995787	1.00644
0.99584	1.01538
0.995868	1.0128
0.995868	1.01307
0.995847	1.01382
0.995939	1.01355
0.995953	1.01643
0.995977	1.01524
0.99597	1.01182
0.995921	1.00857
0.996013	1.01134
0.996002	1.0101
0.996009	1.01178
0.996006	1.01163
0.996009	1.00193
0.99602	1.01255
0.996009	1.00059
0.996009	1.00965
0.996002	1.00241
0.996013	1.00908
0.996002	1.01148
0.996009	1.01218
0.996002	1.01292
0.996009	1.01321
0.996002	1.01168
0.996048	1.00883
0.996073	1.01097
0.996171	1.01046
0.996203	1.00875
0.996139	1.01314
0.996189	1.01309
0.996213	1.01087
0.996312	1.00793
0.996298	1.00747
0.996312	1.00682
0.996365	1.00798
0.996302	1.01015
0.996365	1.00906
0.996316	1.00634
0.996323	1.00188
0.99639	1.00233
0.996351	1.00758
0.996337	1.00628
0.996414	1.00686
0.996418	1.00805
0.996418	1.0088
0.996615	1.00863
0.996414	1.00952
0.996421	1.00988
0.996679	1.00959
0.996428	1.00778
0.996432	1.00735
0.996696	1.00419
0.996569	1.00617
0.996506	0.992663
0.996601	1.00495
0.996672	1.00459
0.996668	1.00315
0.996675	1.0059
0.996679	1.00241
0.9967	1.00415
0.996767	1.00632
0.99677	1.00747
0.996827	1.00896
0.996795	1.00626
0.996837	1.00384
0.996837	1.00453
0.996943	0.995917
0.996975	1.00544
0.997006	1.00544
0.99683	1.00376
0.997102	1.00607
0.99708	1.00674
0.997091	0.998203
0.997084	1.0078
0.997098	1.00709
0.997098	1.0061
0.997088	1.00895
0.997098	1.00934
0.997239	1.01024
0.997098	1.0112
0.997091	1.01239
0.99708	1.01453
0.997151	1.0105
0.997165	0.999155
0.99725	1.01262
0.997232	1.01218
0.99725	1.00699
0.997239	1.01048
0.997359	1.0132
0.997246	1.01309
0.997324	1.01068
0.997384	1.01382
0.997429	1.01599
0.997345	1.01402
0.997369	1.01153
0.997503	1.01276
0.997528	1.0128
0.997602	1.01605
0.997577	1.0144
0.997577	1.01186
0.997574	1.01235
0.997584	1.0122
0.99757	0.999969
0.997655	1.01305
0.99762	1.01128
0.997613	0.998273
0.997697	1.01246
0.997655	1.01124
0.99751	1.00984
0.997658	1.01101
0.997662	1.00985
0.997711	1.01145
0.997761	1.01275
0.997658	1.00914
0.997651	1.00823
0.997658	1.01056
0.997658	1.01129
0.997655	1.01135
0.997697	1.01324
0.997803	1.01315
0.997644	1.01109
0.997905	1.01351
0.997838	1.01789
0.997919	1.0166
0.997877	1.01433
0.997923	1.01882
0.997655	1.01819
0.997916	1.01405
0.99769	1.00853
0.997761	1.01821
0.997743	1.02026
0.997912	1.02094
0.997881	1.0194
0.997926	1.01906
0.997881	1.0212
0.997919	1.02014
0.997916	1.02015
0.997842	1.02055
0.997799	1.01726
0.997888	1.02049
0.997912	1.02099
0.997814	1.02065
0.997792	1.02075
0.997676	1.02146
0.997905	1.01868
0.997849	1.02314
0.997926	1.01912
0.997859	1.01941
0.997923	1.01907
0.99781	1.01919
0.997916	1.01945
0.99793	1.01786
0.997902	1.01493
0.997937	1.01984
0.997902	1.01525
0.997947	1.01921
0.998025	1.01848
0.997972	1.0185
0.998036	1.02223
0.998025	1.02187
0.998011	1.01626
0.998025	1.01754
0.998018	1.02168
0.997997	1.02059
0.998007	1.01911
0.997976	1.01779
0.997969	1.01796
0.997993	1.01744
0.997972	1.0181
0.99794	1.01639
0.997933	1.01535
0.998011	1.01624
0.99799	1.01664
0.997972	1.01783
0.997958	1.0161
0.998039	1.01712
0.998081	1.01569
0.998018	1.01619
0.998021	1.01578
0.998071	1.0066
0.998007	1.01531
0.998067	1.01567
0.998071	1.01826
0.998021	1.0152
0.99806	1.0062
0.998169	1.01038
0.998233	1.01232
0.998095	1.01359
0.998229	1.01123
0.998251	1.00828
0.998071	1.00963
0.998162	1.00875
0.998169	1.01036
0.998272	1.00632
0.998169	1.00327
0.998314	1.01021
0.998328	1.0077
0.998289	1.00978
0.998339	1.01309
0.998321	1.01132
0.998229	1.00773
0.998272	1.00678
0.998363	1.00289
0.99837	1.00592
0.998332	1.00448
0.998314	1.00834
0.998402	1.00839
0.998332	1.00582
0.998406	1.00986
0.998335	1.00536
0.998458	1.00997
0.998332	1.01121
0.998374	1.01154
0.998494	1.01247
0.998388	1.00711
0.998473	1.00646
0.998395	1.01449
0.998367	1.01064
0.998349	1.0098
0.998476	1.01185
0.998434	1.00861
0.998473	1.01386
0.998473	1.01514
0.998494	1.00833
0.998466	1.01369
0.998564	1.01712
0.99848	1.01767
0.998487	1.0111
0.998504	1.01302
0.998533	1.01439
0.998473	1.01452
0.998561	1.01575
0.998522	1.02116
0.998504	1.01936
0.998533	1.01783
0.998659	1.01607
0.998638	1.02199
0.998656	1.0192
0.99867	1.01761
0.998807	1.0153
0.998681	1.01643
0.998748	1.0183
0.998807	1.01865
0.998776	1.01903
0.998776	1.02079
0.998793	1.02127
0.998807	1.02226
0.998744	1.02299
0.998811	1.02058
0.998818	1.02374
0.998797	1.02014
0.998797	1.02337
0.998786	1.02231
0.998765	1.01585
0.998772	1.02214
0.998843	1.02466
0.998811	1.02242
0.998822	1.02178
0.99879	1.022
0.998839	1.02035
0.998839	1.02629
0.998836	1.02357
0.99885	1.0261
0.998804	1.02362
0.998825	1.0258
0.9988	1.02303
0.998733	1.02488
0.998832	1.02483
0.99885	1.02645
0.998776	1.02804
0.99885	1.02792
0.998807	1.02035
0.998843	1.02774
0.998836	1.02419
0.998846	1.02497
0.998846	1.02529
0.9988	1.02321
0.998874	1.02543
0.998874	1.02376
0.998864	1.02729
0.998839	1.02781
0.998881	1.02872
0.998857	1.02733
0.998892	1.03168
0.998867	1.03001
0.999029	1.02885
0.998963	1.02865
0.998881	1.03084
0.99886	1.02219
0.998892	1.03111
0.998857	1.02173
0.998917	1.02187
0.999114	1.02186
0.998867	1.01797
0.998871	1.02844
0.998874	1.02752
0.998998	1.02292
0.998881	1.01486
0.998888	1.02287
0.998878	1.02594
0.998927	1.01765
0.998878	1.02571
0.998885	1.02852
0.998885	1.02536
0.998881	1.0272
0.998931	1.02445
0.99898	1.02881
0.998888	1.03021
0.998878	1.02881
0.99874	1.02875
0.998899	1.02654
0.998748	1.02988
0.998871	1.02471
0.998867	1.02583
0.99886	1.02794
0.998867	1.0273
0.998758	1.02514
0.998888	1.02425
0.998885	1.02487
0.998737	1.03129
0.998874	1.02811
0.998881	1.02916
0.998874	1.02988
0.998878	1.02729
0.998984	1.02886
0.998832	1.03038
0.998871	1.02951
0.998871	1.03005
0.998797	1.02988
0.998871	1.02978
0.998874	1.02897
0.998772	1.02461
0.998867	1.02356
0.998744	1.02713
0.998881	1.02973
0.998755	1.02626
0.99885	1.02565
0.998839	1.0243
0.998871	1.02335
0.998871	1.01997
0.998874	1.02401
0.998934	1.02174
0.99891	1.02699
0.998867	1.02259
0.998938	1.01689
0.99886	1.01876
0.999103	1.02051
0.998864	1.00771
0.998878	1.0201
0.998881	1.0203
0.998857	1.0201
0.998881	1.02203
0.998888	1.01899
0.998917	1.01835
0.998864	1.01707
0.998913	1.01764
0.998941	1.01646
0.999128	1.01633
0.998924	1.01477
0.998892	1.01201
0.998938	1.01515
0.999128	1.01408
0.999008	1.0101
0.999142	1.01369
0.998878	1.01513
0.998945	1.01559
0.999026	1.01428
0.998903	1.02013
0.998906	1.02063
0.999051	1.01885
0.999125	1.02027
0.998998	1.01658
0.999163	1.019
0.999125	1.01669
0.999153	1.01726
0.999192	1.01711
0.999128	1.01933
0.999185	1.0221
0.999188	1.0256
0.999142	1.02605
0.999206	1.01867
0.999177	1.02239
0.999199	1.02215
0.999213	1.02379
0.999167	1.02576
0.999192	1.02213
0.999185	1.02435
0.999206	1.02383
0.999223	1.0222
0.999209	1.02335
0.99928	1.02271
0.999227	1.02167
0.999262	1.02363
0.999283	1.02543
0.999241	1.0254
0.99935	1.02343
0.999297	1.02236
0.999283	1.02845
0.999294	1.02408
0.99928	1.02615
0.999283	1.02787
0.999336	1.03362
0.999368	1.03328
0.999368	1.03243
0.999357	1.0314
0.999378	1.03239
0.999459	1.03064
0.999322	1.03362
0.999509	1.03268
0.99934	1.03218
0.999414	1.02947
0.999389	1.02549
0.999385	1.02955
0.999361	1.03113
0.999509	1.02698
0.99934	1.0135
0.999357	1.02724
0.999452	1.02939
0.999326	1.02926
0.999311	1.02895
0.999357	1.03223
0.999322	1.03097
0.999385	1.03356
0.999378	1.03211
0.999304	1.03401
0.999375	1.029
0.999336	1.03184
0.999326	1.03088
0.999315	1.02923
0.999343	1.03255
0.999491	1.02802
0.999442	1.02657
0.999533	1.02867
0.999466	1.02758
0.999449	1.03111
0.999438	1.03309
0.999491	1.03072
0.999512	1.03053
0.999403	1.03454
0.999452	1.03159
0.999477	1.02901
0.99947	1.03139
0.99928	1.03276
0.999333	1.02687
0.999333	1.02937
0.999428	1.02776
0.999431	1.02695
0.999304	1.03085
0.999368	1.02961
0.999481	1.02805
0.999396	1.0288
0.99953	1.02952
0.999417	1.03295
0.999505	1.03286
0.999442	1.02956
0.999421	1.03192
0.999484	1.03281
0.999438	1.03187
0.999477	1.03351
0.999315	1.03514
0.999498	1.03537
0.999347	1.03478
0.999378	1.0354
0.999301	1.03231
0.999477	1.03046
0.999424	1.03213
0.999491	1.03099
0.999407	1.02939
0.999417	1.02883
0.999456	1.03359
0.999297	1.03371
0.999414	1.03018
0.999378	1.02869
0.999301	1.02901
0.999378	1.0309
0.999449	1.02726
0.999378	1.03027
0.999428	1.02735
0.9994	1.02889
0.999456	1.03281
0.999347	1.03053
0.999361	1.0242
0.999452	1.0237
0.999276	1.02983
0.999445	1.02942
0.999343	1.02543
0.99929	1.02814
0.999276	1.02431
0.999392	1.02951
0.99935	1.02287
0.999301	1.02598
0.99929	1.02185
0.9994	1.0213
0.999385	1.02035
0.99953	1.02253
0.999435	1.01549
0.999442	1.02048
0.999491	1.01818
0.999459	1.01803
0.999516	1.01079
0.999551	1.01389
0.999537	1.01734
0.99954	1.01722
0.999558	1.01931
0.999562	1.01683
0.999548	1.018
0.999562	1.01991
0.99954	1.01845
0.999548	1.01887
0.999548	1.0169
0.999562	1.01984
0.999562	1.01994
0.999555	1.01929
0.999558	1.01871
0.999548	1.02133
0.999565	1.02083
0.999558	1.01961
0.999555	1.02689
0.999558	1.02615
0.999551	1.02298
0.999576	1.01652
0.999548	1.02259
0.999533	1.01822
0.999551	1.01802
0.999586	1.02299
0.999618	1.02371
0.999562	1.02089
0.999569	1.02126
0.999604	1.02458
0.999604	1.02751
0.999579	1.02456
0.999583	1.02571
0.999565	1.02663
0.999562	1.02898
0.999611	1.03
0.999569	1.02971
0.999629	1.02642
0.999639	1.02581
0.999622	1.02553
0.999639	1.02557
0.999615	1.02795
0.999671	1.02821
0.999607	1.029
0.99966	1.03112
0.999593	1.03384
0.999681	1.03239
0.999696	1.02953
0.999678	1.03381
0.999696	1.0321
0.999706	1.03735
0.999748	1.03096
0.999681	1.03154
0.99971	1.03755
0.99965	1.03335
0.999689	1.0285
0.99971	1.02916
0.999678	1.0342
0.99965	1.03309
0.999657	1.0312
0.999685	1.03373
0.999706	1.03095
0.999696	1.0351
0.999727	1.03487
0.999699	1.03475
0.999826	1.0302
0.999766	1.03383
0.999787	1.03359
0.999851	1.03038
0.999759	1.03465
0.999738	1.03527
0.99972	1.03408
0.999717	1.03251
0.999685	1.03461
0.999703	1.03373
0.999703	1.03437
0.999689	1.03304
0.999794	1.03585
0.999734	1.03842
0.999692	1.03666
0.999745	1.03571
0.99977	1.03608
0.999689	1.03799
0.99971	1.03769
0.999674	1.0379
0.999692	1.03746
0.999699	1.03603
0.999667	1.03718
0.999678	1.03824
0.99972	1.03885
0.999696	1.03925
0.999667	1.03828
0.999671	1.03826
0.999692	1.03339
0.99966	1.03254
0.999643	1.0388
0.999615	1.03666
0.999615	1.03519
0.999703	1.03541
0.999625	1.03536
0.999643	1.03572
0.999643	1.0292
0.999625	1.0321
0.999576	1.03372
0.999699	1.03433
0.999664	1.03356
0.999653	1.0338
0.999625	1.03486
0.999646	1.03593
0.999625	1.03072
0.999597	1.03701
0.999572	1.03146
0.999696	1.03679
0.999667	1.0369
0.999696	1.03553
0.999703	1.03855
0.999706	1.03892
0.999664	1.03663
0.99966	1.03816
0.999615	1.03826
0.999689	1.03375
0.999671	1.03793
0.999706	1.03741
0.999657	1.04189
0.99971	1.03866
0.999629	1.03569
0.999555	1.03616
0.999593	1.03843
0.999586	1.03708
0.999569	1.04006
0.999562	1.03299
0.999555	1.02565
0.99954	1.02428
0.999572	1.03702
0.999544	1.03946
0.999593	1.04008
0.999551	1.03549
0.9996	1.03566
0.999551	1.02754
0.999636	1.03782
0.99959	1.03362
0.999565	1.03343
0.999562	1.02356
0.999569	1.03054
0.999562	1.02931
0.999622	1.02698
0.999639	1.02797
0.999657	1.03457
0.999622	1.02646
0.999671	1.02529
0.999692	1.02435
0.999664	1.02506
0.999699	1.0257
0.999692	1.0188
0.999685	1.02063
0.999674	1.02026
0.99971	1.0236
0.999777	1.02755
0.999713	1.0296
0.999706	1.02908
0.999794	1.02651
0.999741	1.02361
0.999713	1.02255
0.999861	1.02114
0.999815	1.02425
0.999829	1.02339
0.999805	1.02298
0.999829	1.02195
0.999805	1.0213
0.999801	1.01763
0.999896	1.02703
0.999784	1.02624
0.999861	1.02597
0.999837	1.02342
0.999889	1.02601
0.999967	1.02285
0.99996	1.0272
0.999939	1.03046
0.999967	1.02544
0.99997	1.0318
0.99996	1.03182
0.999974	1.02633
1.00003	1.02449
0.99997	1.02387
0.99997	1.02418
0.99997	1.02011
0.999949	1.02582
1	1.03388
1.00005	1.03138
1.00002	1.03598
0.999953	1.03683
1.00004	1.02753
1.00004	1.03294
0.999949	1.03219
1.00004	1.0348
0.99997	1.02751
0.999967	1.03002
0.999953	1.03098
0.999974	1.0356
0.999963	1.03354
0.99996	1.03672
0.999963	1.03216
1.00007	1.03275
0.999949	1.03123
0.999953	1.0346
0.999956	1.03469
0.99997	1.03401
1.00004	1.03204
0.999967	1.03627
1.00006	1.03297
1.00005	1.03313
0.999953	1.0311
1.00008	1.0344
1.0001	1.03467
1.00012	1.03644
1.0001	1.03378
1.00011	1.03854
1.00002	1.0394
1.00014	1.03994
1.00014	1.03735
0.999963	1.02973
0.999974	1.03676
1.00007	1.03752
1.0001	1.03752
1.0001	1.03518
1.00009	1.0353
0.999956	1.03733
0.99996	1.03659
1.00007	1.03734
0.999946	1.03717
0.999953	1.03395
0.999939	1.03228
0.999949	1.03583
0.999946	1.03229
1.0001	1.03496
1.00006	1.03735
0.99996	1.03704
0.999953	1.03382
0.999953	1.03506
0.999946	1.03535
1.00011	1.03743
0.999956	1.03833
1.00011	1.04003
1.00008	1.03937
1.00011	1.03685
0.999953	1.03598
1.0001	1.03724
1.00011	1.03685
1.00011	1.03721
0.999963	1.03824
0.999953	1.03777
0.999953	1.03941
0.999949	1.04035
0.999953	1.0396
0.999949	1.03932
1	1.03912
0.999953	1.03334
0.999956	1.03651
1.00007	1.0418
0.999963	1.04267
0.999956	1.03926
0.999949	1.03775
0.99996	1.03921
0.999956	1.03575
0.999967	1.03536
0.99997	1.03787
0.999956	1.03702
0.99997	1.03974
1.0001	1.04116
0.99997	1.04115
0.999956	1.04271
0.99997	1.03863
1.00003	1.0409
0.99996	1.03268
0.999939	1.03649
0.999949	1.03195
0.999949	1.03287
0.999949	1.03748
0.99996	1.03698
0.999942	1.03075
0.999967	1.03575
0.999932	1.04284
0.999935	1.04644
0.999967	1.03977
0.99996	1.04061
0.999942	1.04359
0.999963	1.04283
0.999949	1.04239
0.999946	1.04185
0.999999	1.04224
0.999956	1.04394
1	1.04159
0.99996	1.03897
1	1.03939
0.999946	1.03815
0.999946	1.03452
0.999949	1.03465
0.999956	1.0335
0.999949	1.02187
0.999946	1.03312
0.999978	1.03317
1.00001	1.03253
0.999956	1.03315
0.999942	1.0302
0.99996	1.02981
0.99996	1.03563
0.999956	1.02623
0.99996	1.03271
1.00003	1.03165
0.999953	1.02915
0.999956	1.02866
0.999963	1.0293
0.99996	1.03065
0.999953	1.03045
0.99996	1.03232
0.999963	1.03166
1.00009	1.02834
1.00006	1.03241
1.00007	1.03028
0.999988	1.02899
0.999949	1.02949
1.0001	1.02571
1.0001	1.0249
1.00011	1.02531
1	1.02118
1.00004	1.02392
0.999974	1.02548
1.00007	1.02579
1.00011	1.02416
1.0001	1.02813
1.00012	1.02946
1.00011	1.02969
1.00009	1.02999
1.00011	1.03111
1.00001	1.03287
1.00013	1.02926
1.00012	1.0307
1.00003	1.03422
1.00003	1.03542
1.0001	1.03357
1.00009	1.03689
1.0001	1.03866
1.00007	1.0325
1.00014	1.03209
1.0001	1.03478
1.0001	1.03327
1.0002	1.03463
1.0001	1.0355
1.00008	1.03138
1.00021	1.03599
1.00014	1.04008
1.00011	1.0384
1.00016	1.03584
1.0001	1.03556
1.00015	1.02942
1.00014	1.03684
1.00016	1.03364
1.00016	1.03791
1.00009	1.04138
1.00011	1.0392
1.00015	1.03085
1.00014	1.04319
1.00011	1.04159
1.00011	1.03977
1.00012	1.04306
1.0001	1.03495
1.00019	1.04365
1.00018	1.04379
1.00007	1.04331
1.00011	1.04212
1.00006	1.04529
1.0001	1.04241
1.00004	1.04231
1.00011	1.04307
1.00009	1.0361
1.00009	1.03709
1.00008	1.03133
1.00012	1.04091
1.00015	1.03101
1.0001	1.03672
1.0002	1.04173
1.00011	1.04241
1.0001	1.04407
1.0001	1.04513
1.0001	1.03431
1.00008	1.03616
1.00016	1.03832
1.00004	1.04332
1.00017	1.03803
1.00014	1.04053
1.00011	1.03993
1.00011	1.04086
1.00011	1.0437
1.00007	1.0405
1.0001	1.04473
1.00012	1.04504
1.00009	1.04266
1.00011	1.0442
1.00009	1.04261
1.00012	1.04334
1.00007	1.04423
1.00013	1.03864
1.00007	1.0388
1.00008	1.04129
1.0001	1.04319
1.00008	1.04114
1.00011	1.04505
1.00012	1.04654
1.0001	1.04261
1.00011	1.04732
1.00006	1.04711
0.999992	1.04285
1.0001	1.0424
1.00002	1.04136
1.00003	1.03648
1.00009	1.0411
1.0001	1.04151
1.00001	1.04272
0.999988	1.04067
1.00013	1.04147
1.00011	1.04067
1.00009	1.03403
1.0001	1.04118
1.00007	1.04032
1.00003	1.04002
1.00011	1.04108
1.00013	1.03853
1.0001	1.04015
1.00007	1.04057
1.00007	1.04016
1.00006	1.03495
1.00003	1.04119
1.00004	1.04309
1.00002	1.04112
0.999953	1.04061
1.0001	1.04443
1.00011	1.0415
1.0001	1.04214
0.999999	1.04092
0.999999	1.03943
0.999967	1.03871
0.999963	1.03837
0.999967	1.03418
1.00001	1.03611
0.999967	1.04042
0.999946	1.03838
0.999988	1.03987
0.999953	1.03744
0.99996	1.03699
1.00011	1.03114
0.999988	1.03115
0.99997	1.02922
0.999974	1.03308
0.999978	1.03347
1.0001	1.0316
1.00011	1.02726
0.999974	1.0308
1.00013	1.03035
1.0001	1.03204
1.00002	1.03179
1.00011	1.02877
1.00004	1.02574
1.00007	1.02581
1.00007	1.02613
1.00012	1.02686
1.00008	1.0271
1.00001	1.03227
1.00005	1.03314
1.00006	1.03196
1.00011	1.03124
1.00011	1.03165
1.00011	1.02348
1.00012	1.02865
1.00016	1.03205
1.00011	1.03273
1.00023	1.03543
1.00011	1.028
1.00017	1.03293
1.00015	1.03387
1.00015	1.02893
1.00025	1.02685
1.00024	1.02902
1.00028	1.02939
1.0002	1.02913
1.00025	1.02878
1.00021	1.02848
1.00029	1.03185
1.00029	1.03203
1.00031	1.03312
1.00035	1.02841
1.00031	1.03486
1.00039	1.03422
1.00037	1.03268
1.00035	1.03511
1.00035	1.0382
1.00033	1.0359
1.00029	1.0365
1.00035	1.03397
1.00045	1.03622
1.00038	1.03493
1.00037	1.03234
1.00041	1.03314
1.00041	1.03491
1.00044	1.03575
1.00048	1.03746
1.00045	1.0339
1.00048	1.03704
1.00042	1.0339
1.00045	1.03531
1.0004	1.0309
1.00041	1.03931
1.0004	1.03589
1.00046	1.03628
1.00037	1.03811
1.00037	1.0405
1.00021	1.03749
1.00033	1.03922
1.00037	1.03789
1.00032	1.03963
1.00029	1.03574
1.00038	1.03471
1.0004	1.03565
1.00032	1.03733
1.00041	1.03733
1.00036	1.03854
1.00036	1.03839
1.00037	1.04041
1.0004	1.0413
1.00033	1.03907
1.00037	1.03643
1.00034	1.03884
1.00038	1.03956
1.0004	1.03679
1.00045	1.0391
1.00044	1.03696
1.00038	1.03862
1.0004	1.03355
1.00041	1.03933
1.00037	1.03829
1.00039	1.03768
1.0004	1.03914
1.00037	1.03961
1.00034	1.04077
1.00035	1.04192
1.00041	1.04162
1.00032	1.04036
1.00037	1.04071
1.00041	1.0371
1.00037	1.03957
1.00039	1.03983
1.00036	1.03835
1.00035	1.03781
1.00036	1.03942
1.00033	1.0379
1.00021	1.03759
1.00028	1.03845
1.00033	1.03678
1.00037	1.03892
1.00037	1.03794
1.00037	1.03996
1.00035	1.03862
1.0003	1.0389
1.00038	1.04056
1.00029	1.04089
1.00038	1.03992
1.00029	1.04123
1.00033	1.04005
1.00027	1.04175
1.00027	1.04241
1.00023	1.04431
1.00027	1.04136
1.00031	1.04091
1.0003	1.04226
1.00009	1.04395
1.0002	1.04293
1.00022	1.03884
1.00025	1.04143
1.00019	1.0378
1.00032	1.04171
1.00028	1.03893
1.00035	1.03791
1.00036	1.03784
1.00036	1.03913
1.00019	1.04024
1.00024	1.03749
1.00028	1.03851
1.00032	1.03583
1.00029	1.03816
1.00021	1.04229
1.00016	1.04099
1.00015	1.03875
1.00014	1.03999
1.00021	1.03831
1.00022	1.03277
1.00012	1.03854
1.00009	1.03892
1.0001	1.03682
1.00021	1.03603
1.00013	1.03556
1.00011	1.0342
1.00013	1.03609
1.00011	1.03737
1.00014	1.03277
1.00017	1.03407
1.0001	1.03088
1.00014	1.03193
1.00022	1.03364
1.00034	1.03022
1.00029	1.0296
1.00033	1.02844
1.00036	1.02737
1.00033	1.0281
1.00032	1.02569
1.00037	1.02616
1.00037	1.02408
1.00031	1.02374
1.00034	1.02421
1.00037	1.02671
1.00034	1.02772
1.00037	1.02949
1.00031	1.02782
1.00035	1.02752
1.00037	1.02804
1.00038	1.02868
1.00024	1.03177
1.00033	1.03206
1.00025	1.03455
1.00034	1.02682
1.0003	1.02405
1.00032	1.02826
1.00037	1.03451
1.00036	1.03351
1.0004	1.03497
1.00046	1.03234
1.00045	1.03239
1.00045	1.03156
1.00044	1.03265
1.00038	1.02998
1.00037	1.03624
1.00039	1.03803
1.00043	1.03544
1.00044	1.03416
1.00046	1.0319
1.00038	1.03285
1.00039	1.03435
1.00045	1.03588
1.00051	1.03053
1.00053	1.03345
1.0005	1.03533
1.0005	1.03547
1.00044	1.03498
1.00054	1.03452
1.00045	1.03396
1.00047	1.03794
1.00048	1.04041
1.0005	1.03717
1.00049	1.04146
1.00052	1.04213
1.00052	1.04091
1.00051	1.03747
1.00036	1.0421
1.00052	1.04242
1.00058	1.03626
1.00052	1.03841
1.00051	1.03795
1.00053	1.03577
1.00051	1.04604
1.00058	1.03878
1.0005	1.03954
1.00051	1.03863
1.00052	1.04228
1.00049	1.03778
1.00047	1.03769
1.00053	1.03867
1.00051	1.04072
1.00046	1.03675
1.00051	1.0377
1.00052	1.03948
1.00045	1.04037
1.00052	1.04073
1.0005	1.03873
1.00047	1.03725
1.00051	1.04025
1.00042	1.03797
1.00047	1.04006
1.00052	1.03692
1.00048	1.03343
1.00053	1.03514
1.00052	1.03738
1.00051	1.03972
1.00052	1.04065
1.00053	1.03932
1.00052	1.03824
1.00054	1.03901
1.00051	1.04092
1.00051	1.03906
1.00051	1.03753
1.00046	1.03687
1.00052	1.03621
1.00051	1.03731
1.00049	1.03624
1.00045	1.03521
1.00049	1.0382
1.0005	1.03733
1.0005	1.03884
1.00037	1.03892
1.00044	1.04411
1.00046	1.04323
1.00041	1.044
1.00047	1.03734
1.00045	1.04494
1.00052	1.04368
1.00047	1.04575
1.00045	1.04512
1.00046	1.04134
1.00044	1.04423
1.00044	1.04406
1.00048	1.04247
1.00042	1.03953
1.00043	1.03898
1.00045	1.03781
1.00042	1.04202
1.00037	1.04434
1.00046	1.04509
1.00041	1.04131
1.00045	1.04462
1.00039	1.04311
1.00041	1.04152
1.00041	1.04093
1.00035	1.03702
1.00033	1.03633
1.00035	1.03767
1.00035	1.03786
1.00038	1.03955
1.00037	1.03797
1.00037	1.0374
1.00038	1.03785
1.00036	1.04477
1.00045	1.04069
1.00039	1.04284
1.00044	1.03597
1.0004	1.03707
1.00038	1.03379
1.00036	1.03641
1.00028	1.03613
1.00036	1.03419
1.00035	1.03784
1.00029	1.03686
1.00025	1.03551
1.00016	1.02982
1.00034	1.03025
1.00036	1.02778
1.00032	1.03026
1.00036	1.03208
1.00036	1.03377
1.00036	1.03345
1.00036	1.0333
1.0004	1.0316
1.0004	1.03439
1.00039	1.03616
1.00039	1.03107
1.00046	1.0273
1.0004	1.02627
1.00045	1.0217
1.0004	1.02694
1.00046	1.02756
1.00042	1.02703
1.0004	1.02633
1.00047	1.02767
1.00047	1.02678
1.00045	1.02806
1.00043	1.01991
1.00048	1.03195
1.00046	1.03606
1.00049	1.03677
1.00044	1.03273
1.00045	1.03243
1.00045	1.03321
1.00049	1.03319
1.00052	1.03347
1.00052	1.03988
1.00052	1.0362
1.00052	1.03809
1.00052	1.02966
1.00052	1.03725
1.00052	1.03077
1.00053	1.03023
1.00051	1.03712
1.00056	1.03719
1.00051	1.04035
1.00059	1.03863
1.00051	1.03664
1.00052	1.03655
1.00052	1.03686
1.00052	1.03659
1.00052	1.03659
1.00051	1.03432
1.00059	1.03174
1.00052	1.03009
1.00078	1.03275
1.00069	1.03352
1.00056	1.03326
1.00051	1.03085
1.00073	1.03148
1.00053	1.03465
1.00077	1.03761
1.00078	1.0358
1.00078	1.03788
1.00077	1.03996
1.00076	1.0397
1.00058	1.03946
1.00069	1.03877
1.00062	1.03579
1.00078	1.03965
1.00054	1.04064
1.00053	1.03155
1.00052	1.03808
1.00053	1.03671
1.00053	1.03617
1.00078	1.03154
1.00053	1.03547
1.00079	1.03616
1.00053	1.03683
1.00052	1.03694
1.00066	1.04005
1.00053	1.03621
1.00054	1.03424
1.00077	1.03911
1.0007	1.03931
1.0007	1.04166
1.00052	1.04228
1.00054	1.03911
1.00052	1.0386
1.00079	1.03904
1.00051	1.04198
1.00051	1.0421
1.00052	1.04085
1.00053	1.04269
1.00053	1.04215
1.00065	1.03705
1.00053	1.03921
1.00052	1.04062
1.00052	1.03422
1.00053	1.0389
1.00053	1.0379
1.00054	1.03601
1.00053	1.04259
1.00069	1.03992
1.00054	1.04368
1.00054	1.03376
1.00054	1.04121
1.00068	1.0425
1.00052	1.03742
1.00051	1.03485
1.00053	1.04084
1.00064	1.04211
1.00052	1.04507
1.00052	1.04165
1.00064	1.04425
1.00053	1.04312
1.00051	1.04366
1.00066	1.04321
1.00063	1.04376
1.00052	1.04428
1.00046	1.04275
1.00052	1.0435
1.00076	1.04312
1.00052	1.04237
1.00054	1.04306
1.00062	1.04404
1.00052	1.04497
1.00046	1.03953
1.00052	1.04198
1.00053	1.04523
1.0005	1.04381
1.00062	1.04364
1.00063	1.04373
1.00041	1.04286
1.00052	1.04536
1.00053	1.045
1.00052	1.04224
1.00054	1.03828
1.00062	1.0421
1.00052	1.04169
1.00037	1.03978
1.00054	1.04184
1.00038	1.04323
1.00048	1.04232
1.00055	1.03822
1.00051	1.03372
1.00052	1.03972
1.00049	1.03908
1.00048	1.04151
1.00051	1.03955
1.00046	1.04127
1.00051	1.03917
